timestamps,TP9,AF7,AF8,TP10,Right AUX
1530746652.785,-63.965,-13.672,104.492,-28.809,998.535
1530746652.789,-54.199,-20.508,137.695,-17.578,998.047
1530746652.793,70.801,58.105,-22.949,105.957,999.512
1530746652.797,85.449,79.102,-83.984,114.746,999.512
1530746652.801,-33.691,9.277,57.617,-4.395,999.023
1530746652.805,-75.195,-32.715,150.391,-43.457,999.023
1530746652.809,45.410,33.203,25.879,78.613,998.535
1530746652.813,109.863,89.844,-86.426,141.113,-999.023
1530746652.817,5.859,34.668,18.555,29.785,992.676
1530746652.820,-78.125,-30.273,150.879,-52.246,983.887
1530746652.824,9.277,11.230,68.359,42.969,995.117
1530746652.828,108.887,78.613,-76.172,138.184,999.512
1530746652.832,39.062,48.828,-24.902,61.523,-999.023
1530746652.836,-74.219,-25.879,123.535,-48.340,993.164
1530746652.840,-23.438,-6.836,103.516,5.371,986.816
1530746652.844,95.215,71.289,-46.875,116.211,998.047
1530746652.848,70.312,70.801,-62.012,87.891,-997.559
1530746652.852,-55.664,-4.883,84.961,-31.250,990.234
1530746652.856,-56.152,-22.461,139.160,-32.715,978.516
1530746652.860,74.219,52.246,-11.719,92.773,993.652
1530746652.863,92.773,79.590,-87.402,113.281,-995.605
1530746652.867,-26.367,13.672,49.316,-2.441,982.422
1530746652.871,-69.824,-28.809,150.879,-41.992,966.797
1530746652.875,40.527,28.809,36.133,71.289,988.281
1530746652.879,113.281,83.984,-84.961,139.648,-999.512
1530746652.883,17.090,38.574,2.930,43.945,984.863
1530746652.887,-75.195,-21.973,144.043,-42.969,941.406
1530746652.891,11.230,14.648,80.078,36.621,944.336
1530746652.895,115.723,78.613,-66.895,133.301,984.863
1530746652.899,49.805,51.270,-37.109,69.336,-1000.000
1530746652.902,-64.941,-20.020,111.816,-45.898,936.035
1530746652.906,-25.391,-12.207,119.141,-4.395,904.297
1530746652.910,93.262,62.012,-39.551,115.723,973.633
1530746652.914,77.148,74.707,-73.730,92.773,985.840
1530746652.918,-41.992,6.348,78.613,-22.461,942.871
1530746652.922,-53.223,-18.555,142.090,-28.809,881.836
1530746652.926,64.941,52.734,-1.953,87.402,924.316
1530746652.930,100.098,90.332,-88.379,118.164,991.699
1530746652.934,-13.184,26.855,39.062,8.301,959.961
1530746652.938,-76.660,-29.297,151.855,-47.852,880.859
1530746652.942,31.250,22.949,47.852,56.641,891.602
1530746652.945,112.793,82.031,-78.613,137.695,965.820
1530746652.949,27.344,40.527,-1.953,54.688,959.473
1530746652.953,-68.359,-23.438,142.090,-41.992,882.812
1530746652.957,-1.953,3.418,87.891,28.320,864.258
1530746652.961,103.516,75.195,-70.801,134.766,954.102
1530746652.965,56.641,61.035,-52.246,86.914,948.730
1530746652.969,-61.035,-11.719,104.492,-28.809,858.887
1530746652.973,-38.574,-12.207,128.418,-1.465,830.078
1530746652.977,89.355,58.594,-29.297,119.629,894.043
1530746652.981,84.473,68.359,-79.102,113.281,917.969
1530746652.984,-49.805,-4.883,69.824,-10.254,880.859
1530746652.988,-78.125,-29.297,145.020,-39.062,842.773
1530746652.992,46.387,43.945,3.906,78.613,865.723
1530746652.996,96.191,82.520,-84.473,123.047,918.457
1530746653.000,-13.672,20.996,34.180,15.625,876.465
1530746653.004,-90.332,-30.762,144.531,-53.711,773.926
1530746653.008,10.254,17.578,50.781,45.410,780.762
1530746653.012,99.609,77.148,-83.496,126.465,885.254
1530746653.016,17.578,44.434,-20.996,45.410,912.109
1530746653.020,-86.914,-24.902,127.930,-51.758,817.871
1530746653.024,-23.926,-0.488,97.656,13.184,770.020
1530746653.027,96.680,77.148,-61.523,124.023,848.145
1530746653.031,59.082,69.336,-60.059,82.031,892.578
1530746653.035,-65.430,-7.812,92.773,-34.180,828.613
1530746653.039,-55.176,-16.113,128.418,-23.438,774.414
1530746653.043,67.871,62.988,-23.926,94.238,813.965
1530746653.047,82.520,85.938,-85.938,104.004,871.582
1530746653.051,-35.156,13.672,51.270,-7.324,834.961
1530746653.055,-74.219,-27.832,136.719,-45.410,757.812
1530746653.059,44.922,35.156,15.625,69.824,794.434
1530746653.063,106.445,88.379,-89.355,133.301,909.668
1530746653.067,2.930,36.621,10.254,31.738,886.719
1530746653.070,-85.938,-28.809,142.578,-54.199,757.812
1530746653.074,1.953,15.137,66.406,36.621,780.762
1530746653.078,105.469,86.914,-78.125,131.836,879.395
1530746653.082,37.598,54.688,-28.320,62.500,862.793
1530746653.086,-69.336,-23.926,119.629,-41.016,761.230
1530746653.090,-18.066,-13.184,107.910,12.695,734.863
1530746653.094,93.750,57.617,-43.945,124.023,826.172
1530746653.098,64.941,60.059,-62.012,89.355,874.023
1530746653.102,-55.664,-5.371,84.961,-30.273,805.664
1530746653.106,-51.758,-20.996,133.301,-26.367,735.352
1530746653.109,72.754,51.270,-14.160,100.098,794.922
1530746653.113,94.238,79.102,-87.891,116.211,854.004
1530746653.117,-19.043,13.672,41.504,-2.930,807.617
1530746653.121,-68.848,-28.320,142.578,-49.805,748.535
1530746653.125,46.387,28.320,29.297,63.477,763.184
1530746653.129,120.117,85.938,-91.309,134.277,824.707
1530746653.133,23.438,43.457,1.953,40.527,818.848
1530746653.137,-70.312,-20.508,139.648,-54.688,742.676
1530746653.141,4.395,11.719,72.754,21.973,728.516
1530746653.145,106.934,80.566,-75.684,125.000,812.012
1530746653.149,49.316,62.500,-45.410,67.383,849.609
1530746653.152,-70.801,-10.254,101.562,-47.363,765.137
1530746653.156,-31.250,-2.441,111.328,-4.883,728.516
1530746653.160,99.121,72.266,-39.062,123.047,790.527
1530746653.164,80.566,77.148,-73.242,103.516,829.590
1530746653.168,-49.805,7.812,75.195,-19.531,774.902
1530746653.172,-62.012,-15.137,138.184,-29.297,666.016
1530746653.176,66.895,54.688,0.000,93.750,716.797
1530746653.180,104.980,94.727,-86.426,125.977,812.012
1530746653.184,-9.277,30.273,23.926,16.113,779.785
1530746653.188,-72.266,-24.414,142.090,-44.922,689.941
1530746653.192,32.227,30.273,42.480,59.570,670.410
1530746653.195,115.723,89.844,-91.309,140.137,794.434
1530746653.199,30.273,49.805,-14.648,49.316,834.473
1530746653.203,-71.777,-17.090,128.418,-49.805,680.664
1530746653.207,-6.836,9.766,84.961,20.020,649.902
1530746653.211,106.445,82.031,-68.848,128.906,763.672
1530746653.215,58.105,67.383,-48.828,79.590,768.555
1530746653.219,-68.848,-10.254,104.492,-41.504,715.820
1530746653.223,-43.945,-12.695,120.605,-16.602,660.156
1530746653.227,86.426,61.035,-32.227,111.816,708.496
1530746653.231,83.008,74.219,-80.078,106.934,768.066
1530746653.234,-37.598,6.836,61.523,-13.672,708.496
1530746653.238,-62.988,-22.949,143.555,-41.016,639.648
1530746653.242,61.035,41.504,13.672,75.195,661.621
1530746653.246,115.234,86.426,-91.309,122.559,763.672
1530746653.250,6.348,31.738,19.043,12.695,755.371
1530746653.254,-69.336,-26.855,141.602,-60.547,655.273
1530746653.258,24.414,19.043,51.758,36.133,638.672
1530746653.262,115.234,85.938,-84.961,124.512,722.168
1530746653.266,36.621,53.711,-26.855,58.594,748.535
1530746653.270,-76.172,-19.531,119.141,-42.969,669.434
1530746653.274,-19.531,-1.953,95.703,13.184,621.582
1530746653.277,102.539,73.242,-57.617,132.812,703.125
1530746653.281,70.801,67.383,-59.570,99.121,735.840
1530746653.285,-54.688,-6.836,91.797,-20.508,669.922
1530746653.289,-47.363,-15.625,132.812,-8.789,591.797
1530746653.293,78.125,59.570,-13.672,114.746,646.973
1530746653.297,91.797,78.125,-80.566,124.023,738.281
1530746653.301,-24.414,8.789,51.270,4.883,708.496
1530746653.305,-61.035,-25.879,148.926,-34.668,620.605
1530746653.309,55.664,38.574,28.809,80.566,640.137
1530746653.313,118.164,92.285,-97.656,139.160,756.348
1530746653.316,19.043,40.527,1.465,37.598,726.074
1530746653.320,-64.453,-28.320,134.766,-40.527,601.074
1530746653.324,19.043,12.695,64.941,51.270,615.723
1530746653.328,117.188,84.961,-73.730,142.090,687.500
1530746653.332,51.758,56.152,-30.273,73.730,711.914
1530746653.336,-62.988,-18.066,119.629,-35.156,647.949
1530746653.340,-18.555,-1.465,107.422,10.742,564.941
1530746653.344,98.633,77.637,-47.363,132.324,614.258
1530746653.348,73.730,75.684,-65.430,108.887,688.477
1530746653.352,-46.387,-2.930,82.520,-16.113,643.555
1530746653.356,-48.828,-20.996,132.324,-23.438,568.848
1530746653.359,71.289,48.828,-15.137,97.168,654.297
1530746653.363,92.285,76.172,-85.938,119.141,744.141
1530746653.367,-24.414,12.207,42.969,9.766,692.871
1530746653.371,-76.660,-29.785,144.043,-39.062,581.055
1530746653.375,31.250,27.344,31.738,65.430,583.984
1530746653.379,96.191,83.008,-87.891,134.766,699.707
1530746653.383,6.836,40.527,-1.465,42.480,712.402
1530746653.387,-75.195,-24.414,133.789,-46.387,625.000
1530746653.391,0.000,7.324,77.637,30.762,627.441
1530746653.395,104.980,78.613,-71.289,134.277,707.031
1530746653.399,52.734,60.059,-40.039,78.125,705.078
1530746653.402,-64.941,-14.648,108.398,-40.527,612.305
1530746653.406,-29.785,-8.789,112.305,-11.230,567.871
1530746653.410,101.074,71.777,-39.551,105.957,646.484
1530746653.414,91.797,82.520,-77.637,98.633,700.195
1530746653.418,-36.621,5.371,61.523,-19.043,643.066
1530746653.422,-56.152,-22.949,131.348,-37.109,548.340
1530746653.426,69.824,43.457,-1.465,87.891,606.445
1530746653.430,111.816,81.543,-83.008,127.930,700.195
1530746653.434,-1.953,22.949,33.691,16.113,659.668
1530746653.438,-69.336,-28.320,148.926,-50.293,542.969
1530746653.441,34.668,23.926,51.270,58.105,542.480
1530746653.445,121.094,86.426,-81.543,141.113,635.254
1530746653.449,39.062,47.852,-8.301,53.711,671.387
1530746653.453,-57.617,-21.484,125.488,-37.598,567.871
1530746653.457,-2.930,-0.488,86.914,21.973,542.480
1530746653.461,95.703,68.848,-57.129,120.605,652.344
1530746653.465,51.758,55.664,-43.457,83.496,667.969
1530746653.469,-69.336,-26.855,107.910,-32.715,575.684
1530746653.473,-62.500,-37.598,134.277,-17.578,493.164
1530746653.477,51.270,34.180,-14.648,97.168,572.266
1530746653.481,53.223,44.434,-62.988,102.539,683.594
1530746653.484,-77.637,-34.668,89.355,-12.207,666.992
1530746653.488,-109.375,-69.336,179.199,-43.457,520.508
1530746653.492,7.324,-6.836,38.574,71.777,530.273
1530746653.496,52.734,32.227,-68.359,122.070,657.715
1530746653.500,-49.805,-27.832,48.340,17.090,611.816
1530746653.504,-121.094,-85.449,170.898,-53.711,516.602
1530746653.508,-24.414,-36.133,80.566,44.922,535.156
1530746653.512,68.848,28.809,-56.152,135.254,643.066
1530746653.516,-1.953,-3.906,3.906,58.594,663.574
1530746653.520,-106.934,-69.824,151.855,-45.898,555.176
1530746653.524,-43.945,-45.898,124.512,16.602,492.676
1530746653.527,77.637,31.250,-33.203,132.324,594.727
1530746653.531,40.039,26.855,-36.621,95.703,655.273
1530746653.535,-85.449,-50.781,112.305,-23.438,556.641
1530746653.539,-76.172,-58.594,148.926,-16.113,458.496
1530746653.543,49.805,16.602,-0.977,105.469,533.691
1530746653.547,66.895,39.551,-67.871,121.094,619.629
1530746653.551,-52.734,-23.926,69.336,7.324,567.383
1530746653.555,-100.098,-60.059,158.691,-34.668,458.496
1530746653.559,18.555,3.418,35.156,80.078,500.488
1530746653.563,91.797,61.523,-74.219,144.043,627.930
1530746653.566,-6.836,12.207,19.531,42.969,608.398
1530746653.570,-91.797,-51.758,149.902,-41.992,465.820
1530746653.574,-8.789,-9.766,84.473,44.922,441.406
1530746653.578,88.867,57.129,-62.500,143.555,566.406
1530746653.582,33.203,29.785,-18.066,80.078,619.629
1530746653.586,-79.102,-42.480,135.254,-30.762,515.625
1530746653.590,-32.715,-26.367,115.723,15.137,484.863
1530746653.594,92.773,53.711,-39.551,135.742,575.195
1530746653.598,73.730,58.105,-52.246,117.676,571.289
1530746653.602,-44.922,-14.160,97.168,-4.395,499.512
1530746653.606,-57.129,-37.109,149.902,-14.160,454.590
1530746653.609,65.918,36.621,3.418,112.305,533.691
1530746653.613,100.098,71.289,-79.590,138.184,613.770
1530746653.617,-18.555,3.418,49.316,20.020,558.105
1530746653.621,-79.102,-44.434,154.785,-34.668,462.402
1530746653.625,29.297,15.137,41.992,73.242,465.820
1530746653.629,104.980,76.172,-73.242,144.043,579.102
1530746653.633,11.230,29.297,12.695,49.316,566.895
1530746653.637,-86.426,-38.086,144.531,-40.527,458.984
1530746653.641,-11.230,-0.488,92.773,40.527,446.777
1530746653.645,97.656,72.266,-59.082,144.531,530.273
1530746653.649,40.039,48.828,-42.969,88.379,598.145
1530746653.652,-77.637,-29.785,115.234,-27.344,501.465
1530746653.656,-45.410,-24.902,131.348,6.348,393.555
1530746653.660,76.660,54.688,-27.832,125.488,479.492
1530746653.664,72.266,64.453,-63.965,116.699,600.586
1530746653.668,-49.805,-9.766,83.008,-1.465,520.020
1530746653.672,-69.824,-35.156,154.785,-22.949,357.422
1530746653.676,57.129,38.574,14.648,99.121,421.387
1530746653.680,99.609,77.637,-88.379,139.160,546.387
1530746653.684,-7.812,17.578,24.414,27.344,513.184
1530746653.688,-72.754,-33.203,143.066,-41.992,396.484
1530746653.691,34.180,16.113,52.246,63.965,414.551
1530746653.695,121.582,75.684,-78.125,150.879,532.227
1530746653.699,39.062,36.133,-10.254,69.824,552.734
1530746653.703,-60.547,-33.203,134.766,-28.320,448.242
1530746653.707,2.930,-3.418,94.727,34.180,408.203
1530746653.711,116.211,72.754,-60.059,142.090,533.691
1530746653.715,74.707,61.035,-49.316,99.121,576.172
1530746653.719,-45.898,-11.719,101.562,-20.020,502.930
1530746653.723,-27.344,-15.625,128.418,-3.906,449.219
1530746653.727,96.191,59.082,-26.855,121.582,519.043
1530746653.731,104.004,79.102,-80.078,130.859,567.871
1530746653.734,-16.602,8.301,61.523,9.766,499.512
1530746653.738,-53.223,-32.227,146.484,-28.809,433.594
1530746653.742,70.801,36.621,17.578,92.285,484.863
1530746653.746,130.371,83.496,-87.891,150.391,568.848
1530746653.750,20.020,27.344,22.461,41.504,521.484
1530746653.754,-61.035,-29.785,150.391,-37.598,412.598
1530746653.758,34.668,16.113,66.406,61.035,417.480
1530746653.762,130.859,81.543,-75.195,151.855,507.812
1530746653.766,61.035,47.363,-20.508,78.125,538.574
1530746653.770,-48.340,-22.461,127.930,-24.414,476.074
1530746653.773,6.348,-0.977,111.816,29.297,459.473
1530746653.777,124.023,70.801,-47.363,144.043,548.828
1530746653.781,84.473,61.523,-58.594,110.352,612.305
1530746653.785,-41.992,-12.207,97.168,-13.184,541.504
1530746653.789,-33.203,-24.414,135.742,-8.301,453.613
1530746653.793,98.145,50.293,-13.184,122.070,497.559
1530746653.797,116.211,77.148,-78.613,140.137,578.613
1530746653.801,-2.441,7.812,55.176,20.508,534.668
1530746653.805,-47.363,-32.715,152.344,-23.926,430.664
1530746653.809,66.406,31.250,27.832,92.773,441.406
1530746653.813,131.348,83.984,-82.031,153.809,516.113
1530746653.816,31.250,32.715,18.066,57.617,514.160
1530746653.820,-54.199,-28.809,142.578,-25.879,387.207
1530746653.824,30.273,10.254,74.219,57.617,393.066
1530746653.828,133.301,73.242,-70.801,158.691,514.160
1530746653.832,71.289,47.852,-33.691,93.750,513.184
1530746653.836,-41.992,-24.902,118.652,-18.555,401.855
1530746653.840,-6.836,-14.648,115.234,25.391,350.586
1530746653.844,113.281,63.965,-41.016,144.531,488.281
1530746653.848,98.633,69.824,-63.965,124.512,573.730
1530746653.852,-22.949,-2.441,84.473,6.348,458.984
1530746653.856,-32.715,-22.949,141.602,0.977,367.676
1530746653.859,92.773,45.410,0.488,125.977,455.078
1530746653.863,129.883,79.590,-81.543,155.762,528.320
1530746653.867,18.066,14.648,38.574,44.434,490.234
1530746653.871,-40.527,-38.086,144.043,-13.672,418.945
1530746653.875,67.383,25.391,45.410,95.215,450.684
1530746653.879,142.578,90.332,-74.219,172.363,506.836
1530746653.883,48.828,40.527,0.488,76.172,470.703
1530746653.887,-50.781,-27.344,134.766,-21.484,419.434
1530746653.891,26.855,8.301,81.543,56.152,376.953
1530746653.895,139.648,78.613,-66.406,168.457,424.316
1530746653.898,86.426,62.012,-45.410,112.793,469.727
1530746653.902,-35.156,-13.184,105.469,-5.371,383.301
1530746653.906,-8.301,-15.625,121.582,33.203,351.074
1530746653.910,121.094,63.965,-36.621,154.785,438.965
1530746653.914,116.211,78.125,-70.312,140.625,508.789
1530746653.918,-4.883,3.906,71.289,19.043,477.051
1530746653.922,-27.344,-24.414,138.184,-1.465,376.465
1530746653.926,90.820,43.945,4.883,123.535,403.320
1530746653.930,134.766,81.543,-89.844,162.109,494.141
1530746653.934,29.297,23.926,27.344,52.246,438.965
1530746653.938,-42.969,-27.344,153.320,-8.301,331.543
1530746653.941,49.805,18.555,53.223,91.309,341.309
1530746653.945,143.066,79.590,-83.008,174.805,421.875
1530746653.949,63.477,44.434,-14.648,87.891,449.707
1530746653.953,-39.551,-23.926,120.117,-8.789,363.281
1530746653.957,37.598,-0.488,83.008,63.965,307.617
1530746653.961,149.902,69.824,-61.035,171.875,427.734
1530746653.965,97.168,59.082,-47.852,127.441,487.305
1530746653.969,-26.855,-20.508,104.004,11.719,387.695
1530746653.973,-12.695,-31.738,130.371,33.203,319.824
1530746653.977,109.863,40.039,-17.090,158.203,397.949
1530746653.981,119.141,57.129,-68.359,165.527,478.516
1530746653.984,-0.488,-10.742,67.383,49.805,406.738
1530746653.988,-39.551,-53.223,148.926,8.301,300.781
1530746653.992,83.496,5.371,25.391,127.441,364.746
1530746653.996,143.555,55.664,-75.684,190.918,473.633
1530746654.000,31.738,2.441,25.391,79.590,413.574
1530746654.004,-44.922,-50.293,148.926,5.859,318.359
1530746654.008,54.688,-0.488,70.312,104.980,366.211
1530746654.012,149.414,59.082,-70.312,187.012,423.828
1530746654.016,75.684,27.344,-17.578,115.234,451.660
1530746654.020,-27.832,-36.133,130.859,14.648,378.418
1530746654.023,27.344,-15.137,107.910,64.941,275.391
1530746654.027,144.043,53.711,-46.875,181.152,382.812
1530746654.031,112.305,43.945,-59.570,149.414,432.617
1530746654.035,-6.836,-26.855,88.379,32.715,343.262
1530746654.039,-6.348,-35.645,134.277,36.621,296.387
1530746654.043,115.234,39.062,-15.625,157.715,361.816
1530746654.047,137.207,60.059,-84.961,177.246,453.125
1530746654.051,21.484,-2.930,50.781,63.477,392.578
1530746654.055,-17.578,-37.598,150.879,20.996,260.742
1530746654.059,97.168,19.531,33.691,136.230,304.688
1530746654.063,161.621,70.312,-79.590,200.684,423.828
1530746654.066,60.547,22.461,6.348,96.680,419.922
1530746654.070,-29.785,-44.922,137.207,7.324,318.359
1530746654.074,54.688,-9.277,70.801,95.215,355.957
1530746654.078,160.645,64.941,-73.730,190.918,434.570
1530746654.082,101.562,41.016,-33.691,130.371,410.645
1530746654.086,-10.254,-34.180,109.375,29.785,358.398
1530746654.090,31.738,-24.414,108.887,71.289,287.598
1530746654.094,157.715,56.152,-40.527,191.895,375.488
1530746654.098,139.160,60.547,-63.477,172.363,445.801
1530746654.102,17.090,-12.207,76.660,54.199,376.465
1530746654.105,4.883,-32.715,134.277,47.363,302.246
1530746654.109,125.000,33.691,-2.441,168.457,357.422
1530746654.113,163.086,68.848,-86.914,198.730,426.270
1530746654.117,54.199,10.254,35.156,89.355,386.719
1530746654.121,0.488,-35.645,141.602,38.086,302.734
1530746654.125,103.027,20.996,43.457,141.113,309.082
1530746654.129,174.316,78.125,-74.219,211.914,407.227
1530746654.133,86.914,34.668,-2.441,120.117,398.926
1530746654.137,-10.254,-33.691,129.883,22.949,277.832
1530746654.141,63.965,-2.441,83.008,96.191,283.691
1530746654.145,174.805,72.266,-65.430,200.195,396.484
1530746654.148,121.582,57.129,-44.434,150.391,396.484
1530746654.152,6.836,-18.066,104.980,38.574,302.246
1530746654.156,35.156,-17.090,117.676,67.383,271.973
1530746654.160,160.156,60.547,-30.762,188.477,344.727
1530746654.164,158.691,72.266,-70.312,182.617,397.949
1530746654.168,38.574,0.977,71.777,65.430,348.145
1530746654.172,12.207,-25.879,142.090,40.039,250.488
1530746654.176,134.277,40.527,6.348,158.203,307.617
1530746654.180,187.500,80.566,-79.590,199.219,424.316
1530746654.184,81.055,21.484,36.133,88.867,404.785
1530746654.188,9.766,-36.621,149.414,24.902,276.367
1530746654.191,108.887,12.207,57.617,121.094,260.254
1530746654.195,199.707,76.172,-69.336,206.543,386.719
1530746654.199,121.582,34.180,-7.324,134.277,400.879
1530746654.203,14.648,-39.062,126.465,37.598,287.598
1530746654.207,73.242,-12.207,98.145,105.469,241.211
1530746654.211,189.941,65.430,-46.387,224.121,330.078
1530746654.215,148.926,57.129,-44.922,183.105,396.973
1530746654.219,30.273,-18.555,102.539,60.547,355.957
1530746654.223,48.340,-19.531,133.301,81.543,284.668
1530746654.227,165.039,59.570,-11.230,201.172,316.406
1530746654.230,169.434,78.613,-65.918,198.730,432.617
1530746654.234,51.758,9.766,64.453,84.473,406.250
1530746654.238,16.602,-24.414,155.273,52.246,314.941
1530746654.242,132.324,43.945,35.156,162.109,348.633
1530746654.246,184.570,90.820,-78.613,213.379,403.809
1530746654.250,85.449,33.203,24.902,115.723,386.719
1530746654.254,7.324,-26.855,154.785,34.668,284.668
1530746654.258,94.238,19.531,74.707,125.000,287.598
1530746654.262,184.082,82.520,-62.988,221.191,366.211
1530746654.266,111.328,47.852,-11.230,146.973,353.027
1530746654.270,1.465,-20.996,133.789,36.621,267.578
1530746654.273,54.199,-1.465,120.605,88.379,212.402
1530746654.277,176.758,74.219,-26.367,207.520,335.938
1530746654.281,151.367,74.219,-42.480,179.688,442.383
1530746654.285,28.809,1.953,102.539,65.918,314.453
1530746654.289,30.762,-10.742,152.832,71.777,192.383
1530746654.293,158.203,58.105,12.207,189.941,304.688
1530746654.297,179.199,81.055,-51.758,211.426,422.852
1530746654.301,61.523,15.625,66.895,96.191,364.746
1530746654.305,16.602,-26.855,152.832,53.223,260.742
1530746654.309,126.953,32.227,49.805,166.992,274.902
1530746654.313,193.848,86.914,-53.223,226.562,367.676
1530746654.316,101.562,44.434,29.297,132.324,391.602
1530746654.320,15.625,-12.207,153.320,44.922,252.441
1530746654.324,93.750,22.949,97.168,127.930,235.352
1530746654.328,190.430,81.055,-44.922,225.586,329.102
1530746654.332,127.441,54.688,-11.719,161.133,343.750
1530746654.336,16.113,-13.184,134.277,49.316,255.859
1530746654.340,59.082,-2.930,130.859,86.426,188.477
1530746654.344,180.664,72.754,-19.531,205.078,292.480
1530746654.348,168.945,79.102,-41.016,184.570,361.816
1530746654.352,48.340,8.789,101.562,64.941,276.367
1530746654.355,29.297,-14.648,160.645,56.152,191.895
1530746654.359,152.832,51.270,28.320,177.246,263.184
1530746654.363,185.059,86.914,-51.758,205.566,352.539
1530746654.367,70.312,30.273,62.500,88.379,320.312
1530746654.371,15.137,-14.648,166.016,40.039,264.648
1530746654.375,120.117,39.551,67.871,151.367,238.770
1530746654.379,200.195,97.656,-55.176,222.656,300.293
1530746654.383,114.746,57.129,16.602,133.301,362.793
1530746654.387,22.461,-6.348,151.367,42.480,290.527
1530746654.391,98.633,21.484,110.352,120.605,222.656
1530746654.395,205.078,89.844,-29.297,224.609,317.871
1530746654.398,148.438,74.707,-17.090,166.504,366.699
1530746654.402,30.762,0.000,124.023,50.781,279.785
1530746654.406,55.664,2.930,145.020,79.102,207.520
1530746654.410,174.805,73.730,4.883,193.848,250.488
1530746654.414,170.898,80.566,-35.156,185.059,307.129
1530746654.418,54.688,13.184,102.539,70.312,269.531
1530746654.422,36.621,-16.113,177.246,47.852,186.035
1530746654.426,146.973,42.969,42.480,161.621,239.746
1530746654.430,188.477,77.637,-51.270,206.543,333.984
1530746654.434,85.938,19.043,61.523,102.051,312.988
1530746654.437,12.207,-30.762,173.340,31.250,210.449
1530746654.441,102.051,20.996,87.402,128.906,189.941
1530746654.445,187.012,83.008,-44.434,206.055,299.805
1530746654.449,107.910,46.875,17.090,122.559,342.285
1530746654.453,-1.953,-18.555,161.621,22.461,232.910
1530746654.457,57.129,6.836,129.883,83.496,174.805
1530746654.461,163.574,75.684,-14.648,190.430,254.395
1530746654.465,121.582,65.430,-16.113,146.973,303.711
1530746654.469,9.277,-3.906,120.117,37.598,278.320
1530746654.473,23.438,-9.766,156.738,57.129,212.402
1530746654.477,148.926,62.988,15.137,178.711,246.094
1530746654.480,158.691,81.543,-41.016,183.594,332.520
1530746654.484,38.574,17.578,94.727,69.336,299.316
1530746654.488,6.348,-12.207,177.734,32.227,175.781
1530746654.492,120.605,39.551,50.781,142.090,187.988
1530746654.496,171.875,79.102,-54.688,197.754,307.617
1530746654.500,67.871,33.203,47.363,99.121,303.711
1530746654.504,-15.137,-20.508,170.410,23.438,196.289
1530746654.508,72.754,23.438,103.027,113.281,201.172
1530746654.512,173.828,76.660,-34.180,214.844,284.180
1530746654.516,104.492,42.480,5.859,147.949,291.016
1530746654.520,-7.812,-15.625,152.832,26.855,240.723
1530746654.523,48.828,11.719,131.836,72.266,180.664
1530746654.527,170.898,88.379,-21.973,190.918,248.535
1530746654.531,147.949,89.844,-33.203,162.598,318.848
1530746654.535,38.574,24.902,107.422,52.246,259.766
1530746654.539,38.086,10.742,154.297,59.570,200.195
1530746654.543,154.297,81.543,16.602,179.199,245.117
1530746654.547,177.246,106.934,-56.641,194.336,304.199
1530746654.551,57.617,38.086,66.895,79.590,266.602
1530746654.555,6.348,-3.906,163.086,34.180,169.922
1530746654.559,119.629,55.664,58.594,145.020,205.078
1530746654.562,187.500,109.375,-55.664,207.031,337.891
1530746654.566,90.820,62.012,25.391,106.934,322.754
1530746654.570,1.465,-0.488,160.645,24.414,210.938
1530746654.574,78.125,35.156,96.680,107.422,192.383
1530746654.578,176.758,103.027,-45.898,201.172,266.113
1530746654.582,117.188,74.707,-11.230,140.625,314.453
1530746654.586,6.348,1.953,136.719,33.691,242.676
1530746654.590,41.016,12.695,143.066,69.336,159.668
1530746654.594,154.297,82.520,-9.277,179.688,213.379
1530746654.598,138.184,88.379,-39.062,159.180,338.867
1530746654.602,21.484,20.996,102.051,48.340,311.523
1530746654.605,8.301,-2.441,158.203,41.992,172.363
1530746654.609,125.977,66.406,21.973,157.227,168.457
1530746654.613,159.180,99.609,-60.059,186.523,276.855
1530746654.617,49.316,40.039,62.988,77.148,270.020
1530746654.621,-9.766,-6.348,171.875,19.531,114.258
1530746654.625,85.449,39.551,71.289,116.211,16.602
1530746654.629,160.645,97.656,-49.316,191.406,16.113
1530746654.633,72.266,60.547,22.461,104.492,2.441
1530746654.637,-26.855,-4.883,153.320,5.859,11.719
1530746654.641,51.270,22.949,108.887,85.938,-14.648
1530746654.645,159.180,91.797,-35.156,190.430,-2.930
1530746654.648,106.934,76.660,-14.160,132.812,20.996
1530746654.652,-8.789,7.324,131.836,21.484,-11.719
1530746654.656,14.648,7.324,144.531,47.852,20.020
1530746654.660,139.648,81.543,-2.930,164.551,-39.551
1530746654.664,136.719,98.145,-48.828,157.227,-66.406
1530746654.668,17.578,32.227,91.309,40.527,29.297
1530746654.672,-0.488,1.465,170.898,21.484,-52.246
1530746654.676,113.770,61.523,40.527,139.160,-27.832
1530746654.680,154.297,102.051,-54.688,172.852,19.531
1530746654.684,52.734,47.852,54.688,63.965,-68.848
1530746654.687,-20.020,-4.395,170.410,-0.977,17.578
1530746654.691,73.730,44.922,84.961,96.191,-67.383
1530746654.695,160.645,104.980,-45.410,177.734,-114.746
1530746654.699,81.055,65.430,17.090,97.656,44.434
1530746654.703,-20.020,-3.906,152.344,-2.930,-51.758
1530746654.707,39.062,20.508,120.117,57.617,-47.363
1530746654.711,148.926,95.703,-25.879,168.945,13.672
1530746654.715,107.910,84.961,-21.484,132.324,-83.496
1530746654.719,-5.371,15.137,128.418,21.484,9.766
1530746654.723,12.695,10.254,160.156,36.621,-56.641
1530746654.727,127.930,78.125,16.113,153.809,-107.910
1530746654.730,134.766,97.168,-40.039,158.203,38.574
1530746654.734,20.996,29.785,93.262,45.410,-71.777
1530746654.738,-18.066,-6.348,178.711,12.207,-48.828
1530746654.742,94.238,57.129,51.758,123.535,-10.742
1530746654.746,145.996,105.957,-49.316,174.316,-111.328
1530746654.750,41.992,55.664,51.758,74.707,21.484
1530746654.754,-30.762,-2.441,175.293,-5.859,-73.730
1530746654.758,61.035,35.156,103.516,76.172,-110.352
1530746654.762,148.926,98.633,-41.504,166.504,34.668
1530746654.766,77.148,71.289,-0.977,100.098,-81.055
1530746654.770,-22.461,2.930,144.043,-2.930,-31.738
1530746654.773,27.344,22.461,138.184,51.758,-13.184
1530746654.777,135.742,92.773,-8.789,161.621,-113.770
1530746654.781,108.887,81.055,-27.832,135.254,29.785
1530746654.785,-4.395,4.395,118.652,30.273,-79.590
1530746654.789,-8.789,-5.859,167.480,26.367,-125.488
1530746654.793,110.840,74.707,24.414,129.883,36.621
1530746654.797,140.137,108.887,-45.410,152.344,-86.426
1530746654.801,29.297,48.828,70.312,42.480,-28.809
1530746654.805,-22.461,8.301,157.227,-5.859,-18.066
1530746654.809,79.102,61.035,50.781,101.074,-137.207
1530746654.812,142.090,110.352,-63.965,158.691,27.832
1530746654.816,47.363,61.035,20.020,63.477,-89.355
1530746654.820,-35.156,0.000,146.973,-16.113,-128.418
1530746654.824,42.480,38.574,88.379,62.988,43.945
1530746654.828,141.113,102.051,-44.434,159.180,-66.895
1530746654.832,83.984,76.172,-15.137,102.539,-24.414
1530746654.836,-28.809,7.812,122.070,-9.277,-26.367
1530746654.840,8.789,18.555,127.930,27.832,-126.953
1530746654.844,124.023,88.379,-17.578,144.531,24.414
1530746654.848,106.445,87.891,-48.828,123.535,-78.613
1530746654.852,-20.996,16.602,89.355,7.324,-104.980
1530746654.855,-38.086,-4.883,150.879,-8.789,37.109
1530746654.859,84.961,61.523,16.602,105.469,-75.684
1530746654.863,113.281,92.773,-72.266,132.812,-20.508
1530746654.867,2.930,30.762,43.945,25.391,-49.316
1530746654.871,-53.711,-13.672,149.414,-26.855,-137.207
1530746654.875,47.363,38.086,53.223,71.777,34.668
1530746654.879,124.023,90.332,-64.941,146.484,-97.656
1530746654.883,37.598,51.758,9.277,64.453,-97.168
1530746654.887,-54.688,-7.812,140.625,-30.273,32.227
1530746654.891,14.160,15.137,91.309,37.598,-103.027
1530746654.894,122.559,79.102,-53.223,141.113,-10.254
1530746654.898,75.195,67.383,-38.086,94.727,-47.852
1530746654.902,-36.133,2.441,109.375,-10.742,-136.230
1530746654.906,-8.789,2.441,132.812,10.254,43.945
1530746654.910,104.492,68.848,-14.648,122.559,-80.566
1530746654.914,104.492,83.008,-62.500,122.070,-99.121
1530746654.918,-12.695,15.625,71.289,1.465,26.855
1530746654.922,-41.992,-19.531,145.996,-24.902,-105.469
1530746654.926,77.148,43.457,20.020,97.656,-9.277
1530746654.930,122.070,83.008,-77.148,138.672,-44.922
1530746654.934,15.137,26.367,35.156,33.691,-145.996
1530746654.937,-56.152,-25.391,148.438,-33.691,37.598
1530746654.941,39.551,17.090,61.523,61.523,-91.309
1530746654.945,125.977,75.684,-61.523,147.949,-97.168
1530746654.949,41.992,42.480,-1.465,64.941,16.602
1530746654.953,-62.500,-23.438,132.324,-37.109,-102.051
1530746654.957,-3.418,-2.930,104.980,24.902,3.906
1530746654.961,106.445,64.453,-36.621,130.859,-55.176
1530746654.965,69.824,58.594,-44.434,86.914,-138.672
1530746654.969,-42.480,-1.953,93.262,-25.391,33.691
1530746654.973,-29.297,-7.812,135.742,-9.766,-81.055
1530746654.977,85.449,53.223,-11.719,104.980,-72.754
1530746654.980,95.703,71.289,-73.242,116.699,13.672
1530746654.984,-17.578,10.254,64.453,11.719,-99.121
1530746654.988,-56.641,-24.902,154.785,-28.809,10.254
1530746654.992,49.805,33.203,34.668,73.730,-83.008
1530746654.996,104.004,79.102,-73.242,132.324,-158.203
1530746655.000,7.812,27.832,21.973,32.715,41.016
1530746655.004,-71.777,-24.414,142.578,-46.875,-98.633
1530746655.008,10.742,15.137,77.148,42.480,-70.801
1530746655.012,100.586,73.730,-58.105,133.301,12.695
1530746655.016,31.738,45.410,-14.160,64.941,-123.535
1530746655.019,-72.266,-18.555,124.512,-34.180,11.719
1530746655.023,-23.438,-6.836,101.074,12.207,-85.449
1530746655.027,94.238,61.523,-41.016,125.000,-151.855
1530746655.031,73.242,62.500,-55.176,101.074,49.805
1530746655.035,-45.898,-5.371,85.449,-16.113,-82.520
1530746655.039,-44.922,-16.113,140.625,-9.766,-68.848
1530746655.043,80.566,56.152,5.371,109.863,9.766
1530746655.047,106.445,81.543,-73.242,125.977,-116.699
1530746655.051,-7.324,15.625,46.875,17.090,8.301
1530746655.055,-57.129,-21.484,148.438,-24.414,-71.777
1530746655.059,49.316,33.203,43.457,78.125,-136.719
1530746655.062,113.770,73.730,-70.801,137.207,41.504
1530746655.066,20.020,24.902,12.695,43.945,-94.238
1530746655.070,-66.406,-32.715,144.531,-38.086,-63.965
1530746655.074,10.742,2.441,83.008,39.551,-10.742
1530746655.078,110.352,72.266,-55.664,126.953,-129.883
1530746655.082,51.270,50.781,-32.227,62.012,20.020
1530746655.086,-57.129,-20.020,105.957,-44.434,-85.938
1530746655.090,-20.020,-8.789,114.258,-10.742,-129.395
1530746655.094,100.098,65.430,-25.879,104.492,37.598
1530746655.098,89.355,70.801,-56.641,93.262,-93.750
1530746655.102,-32.227,3.418,78.613,-19.531,-41.016
1530746655.105,-51.270,-15.137,138.672,-35.645,-14.160
1530746655.109,59.570,52.734,9.277,81.543,-127.441
1530746655.113,92.773,88.379,-70.801,115.723,29.297
1530746655.117,-15.137,26.367,36.133,8.301,-87.891
1530746655.121,-73.730,-21.973,147.949,-44.922,-141.113
1530746655.125,23.926,28.320,63.477,56.152,38.574
1530746655.129,99.121,78.125,-67.383,126.465,-97.656
1530746655.133,21.973,40.527,-3.418,46.387,-35.156
1530746655.137,-71.289,-18.555,131.836,-42.480,-20.996
1530746655.141,-8.789,9.277,93.262,22.949,-149.902
1530746655.144,93.750,81.055,-50.293,127.930,28.809
1530746655.148,44.434,66.406,-39.551,78.125,-97.656
1530746655.152,-67.383,-3.906,106.445,-33.203,-140.625
1530746655.156,-41.992,-3.906,128.418,-3.418,46.387
1530746655.160,78.125,63.477,-14.648,113.770,-78.125
1530746655.164,73.730,74.219,-59.082,112.305,-31.250
1530746655.168,-45.898,3.418,73.242,-4.883,-28.809
1530746655.172,-67.871,-22.461,145.020,-33.203,-138.672
1530746655.176,54.688,47.852,16.113,87.402,25.879
1530746655.180,99.609,84.961,-73.242,128.906,-88.867
1530746655.184,-19.043,25.391,36.133,15.625,-119.141
1530746655.187,-96.680,-27.832,150.391,-56.641,39.062
1530746655.191,-4.395,11.719,69.336,41.504,-87.891
1530746655.195,79.102,65.918,-53.711,125.000,-25.879
1530746655.199,0.000,27.344,4.395,43.457,-53.223
1530746655.203,-96.680,-37.598,142.090,-51.758,-152.344
1530746655.207,-37.109,-13.184,122.559,12.207,36.133
1530746655.211,70.801,50.781,-21.973,119.629,-109.375
1530746655.215,32.227,38.086,-32.715,78.125,-111.816
1530746655.219,-82.031,-23.926,104.492,-38.086,34.668
1530746655.223,-73.242,-30.273,142.090,-28.320,-111.816
1530746655.226,43.945,35.156,2.930,88.867,-15.137
1530746655.230,60.547,57.617,-55.664,100.098,-52.246
1530746655.234,-46.387,-0.488,69.824,-4.883,-149.414
1530746655.238,-81.543,-32.715,155.273,-37.109,44.434
1530746655.242,28.320,22.461,39.551,68.359,-88.867
1530746655.246,87.891,68.848,-69.824,120.117,-110.352
1530746655.250,-6.836,20.508,24.414,22.461,28.809
1530746655.254,-82.031,-36.621,149.414,-49.805,-115.234
1530746655.258,1.953,2.441,79.102,35.645,-12.695
1530746655.262,86.914,62.988,-58.594,117.676,-52.246
1530746655.266,19.531,41.016,-12.695,51.270,-164.062
1530746655.269,-83.984,-22.461,123.047,-52.246,39.062
1530746655.273,-41.016,-14.648,113.770,-3.906,-99.121
1530746655.277,73.242,54.688,-26.855,104.492,-107.422
1530746655.281,45.898,57.129,-48.828,71.289,16.113
1530746655.285,-75.195,-11.719,88.867,-39.551,-115.234
1530746655.289,-72.266,-27.344,136.719,-35.645,1.465
1530746655.293,50.781,41.504,4.883,81.055,-66.406
1530746655.297,74.219,68.359,-62.012,101.074,-158.691
1530746655.301,-37.598,2.930,59.570,-4.395,36.621
1530746655.305,-88.867,-36.133,155.273,-49.316,-91.797
1530746655.309,20.996,20.508,53.223,53.223,-84.961
1530746655.312,90.820,70.312,-62.500,112.793,12.695
1530746655.316,-2.441,28.809,13.184,24.414,-110.840
1530746655.320,-83.008,-26.367,145.996,-59.082,7.324
1530746655.324,-3.418,3.906,92.285,16.602,-85.449
1530746655.328,96.680,68.359,-42.969,119.141,-167.480
1530746655.332,39.062,49.316,-15.137,63.477,42.480
1530746655.336,-75.684,-23.926,118.164,-43.457,-108.887
1530746655.340,-44.922,-18.066,127.930,-13.672,-79.590
1530746655.344,72.266,57.129,-20.020,92.285,10.742
1530746655.348,62.012,65.918,-55.176,82.520,-138.184
1530746655.351,-51.758,-0.488,90.820,-26.855,9.766
1530746655.355,-71.777,-20.996,156.250,-43.945,-88.867
1530746655.359,46.875,47.363,19.043,73.730,-162.598
1530746655.363,83.496,82.520,-72.266,103.027,50.781
1530746655.367,-30.762,12.695,47.852,-0.977,-94.727
1530746655.371,-75.684,-36.133,161.621,-42.969,-77.637
1530746655.375,19.043,25.391,61.523,43.945,6.836
1530746655.379,81.543,84.961,-72.266,95.215,-131.836
1530746655.383,-5.371,47.363,-8.789,7.812,7.324
1530746655.387,-104.492,-14.160,125.977,-85.449,-79.102
1530746655.391,-41.992,21.973,88.379,-22.461,-151.367
1530746655.394,57.617,93.750,-66.895,67.383,42.969
1530746655.398,16.113,81.543,-62.012,21.973,-104.492
1530746655.402,-101.074,11.719,92.285,-88.867,-70.801
1530746655.406,-85.449,4.395,113.770,-69.824,-11.719
1530746655.410,35.645,71.289,-32.227,49.316,-140.625
1530746655.414,40.039,85.449,-78.125,51.758,19.043
1530746655.418,-71.289,20.508,57.129,-55.176,-92.773
1530746655.422,-93.750,-6.836,132.812,-80.078,-141.602
1530746655.426,22.949,56.641,10.742,35.645,39.062
1530746655.430,73.242,94.727,-86.914,82.031,-101.562
1530746655.434,-20.508,45.898,15.625,-19.043,-47.363
1530746655.437,-95.215,-8.789,133.301,-82.520,-15.625
1530746655.441,-6.836,28.809,53.223,10.254,-137.695
1530746655.445,79.102,87.891,-80.078,88.867,28.809
1530746655.449,2.930,55.664,-24.414,13.672,-94.238
1530746655.453,-94.238,-7.324,125.488,-78.613,-151.367
1530746655.457,-37.598,14.648,94.727,-20.508,40.039
1530746655.461,72.266,82.520,-61.035,88.379,-108.887
1530746655.465,42.480,73.242,-61.523,56.152,-42.480
1530746655.469,-77.637,0.488,83.008,-56.641,-21.973
1530746655.473,-72.754,-14.160,125.488,-44.434,-161.133
1530746655.476,50.293,53.711,-12.207,73.730,29.297
1530746655.480,59.570,76.172,-81.543,83.008,-105.469
1530746655.484,-49.805,15.625,46.387,-24.902,-152.832
1530746655.488,-81.055,-16.113,140.137,-61.523,45.898
1530746655.492,26.855,40.527,24.414,43.945,-91.309
1530746655.496,82.520,85.449,-86.426,104.980,-37.109
1530746655.500,-13.672,35.645,2.441,10.742,-29.785
1530746655.504,-94.238,-23.438,131.348,-68.359,-147.949
1530746655.508,-12.695,12.207,71.289,18.066,26.367
1530746655.512,74.707,71.777,-73.730,105.469,-95.703
1530746655.516,14.160,51.270,-33.691,38.086,-129.395
1530746655.519,-83.496,-10.254,114.746,-58.594,40.527
1530746655.523,-43.457,-3.418,104.004,-16.113,-97.656
1530746655.527,67.383,66.895,-48.340,89.844,-32.227
1530746655.531,44.434,70.312,-65.918,64.941,-54.688
1530746655.535,-68.848,4.883,75.195,-53.223,-162.598
1530746655.539,-70.801,-11.719,125.977,-54.199,35.645
1530746655.543,47.363,49.316,-6.348,67.871,-114.746
1530746655.547,70.801,78.125,-77.637,91.309,-121.094
1530746655.551,-43.457,19.043,41.992,-21.484,35.645
1530746655.555,-97.168,-22.461,141.602,-67.871,-118.164
1530746655.558,8.789,32.715,36.621,41.504,-18.066
1530746655.562,81.055,84.961,-86.426,103.027,-54.199
1530746655.566,-5.859,42.480,-8.301,9.766,-159.180
1530746655.570,-93.750,-12.695,125.977,-74.219,44.922
1530746655.574,-23.438,20.020,71.777,1.465,-95.703
1530746655.578,74.707,76.660,-72.266,96.680,-120.117
1530746655.582,22.461,58.105,-39.062,42.480,30.273
1530746655.586,-88.379,-9.277,108.887,-62.500,-120.605
1530746655.590,-57.617,-6.836,112.305,-31.738,-14.160
1530746655.594,62.012,64.453,-42.480,83.984,-58.105
1530746655.598,54.199,71.777,-77.148,77.637,-177.246
1530746655.601,-63.965,4.395,68.359,-33.691,40.527
1530746655.605,-81.055,-19.043,131.348,-48.340,-106.445
1530746655.609,37.109,47.363,-1.953,65.918,-116.699
1530746655.613,70.801,78.125,-81.055,95.215,17.090
1530746655.617,-37.109,15.625,32.715,-12.207,-123.535
1530746655.621,-102.539,-25.879,142.578,-73.242,-2.441
1530746655.625,-4.395,23.438,47.363,23.438,-69.336
1530746655.629,76.172,74.219,-83.984,100.586,-166.016
1530746655.633,-7.324,37.109,-16.113,19.043,37.598
1530746655.637,-101.074,-24.414,122.559,-75.684,-97.168
1530746655.641,-36.621,1.953,86.426,-14.160,-91.797
1530746655.644,66.895,72.754,-59.570,91.309,12.695
1530746655.648,27.832,61.523,-53.223,50.293,-118.652
1530746655.652,-83.496,-10.254,88.379,-62.988,4.883
1530746655.656,-68.359,-11.230,119.141,-42.480,-87.891
1530746655.660,45.898,57.129,-28.809,70.312,-175.293
1530746655.664,47.363,65.918,-83.008,71.777,43.457
1530746655.668,-71.777,0.000,53.711,-43.457,-115.723
1530746655.672,-101.562,-27.832,131.836,-73.730,-86.914
1530746655.676,16.602,30.762,7.812,45.410,9.766
1530746655.680,68.359,70.801,-90.820,88.867,-145.996
1530746655.683,-35.645,17.578,15.137,-13.672,7.812
1530746655.687,-103.027,-44.922,143.066,-71.777,-90.820
1530746655.691,-6.836,-3.418,57.617,20.996,-168.945
1530746655.695,79.102,69.336,-87.402,95.215,51.270
1530746655.699,11.719,46.875,-36.621,21.973,-100.098
1530746655.703,-88.867,-15.625,106.445,-76.172,-83.008
1530746655.707,-32.227,6.348,81.055,-18.066,6.348
1530746655.711,83.008,76.172,-67.383,95.215,-138.184
1530746655.715,53.223,66.406,-72.266,61.035,6.836
1530746655.719,-58.594,-5.371,71.777,-44.922,-83.984
1530746655.723,-52.246,-12.695,114.746,-31.738,-160.645
1530746655.726,58.594,51.270,-28.320,78.613,43.945
1530746655.730,70.312,74.219,-92.773,88.867,-111.816
1530746655.734,-40.039,19.531,42.480,-20.508,-76.660
1530746655.738,-80.566,-20.996,129.395,-63.477,-14.160
1530746655.742,24.902,30.273,6.836,41.992,-149.414
1530746655.746,84.961,80.566,-101.074,102.051,19.043
1530746655.750,-7.812,37.598,-8.789,5.371,-97.656
1530746655.754,-86.914,-19.531,120.605,-76.660,-149.902
1530746655.758,-1.953,18.555,54.199,2.930,40.527
1530746655.762,95.703,82.520,-90.820,94.727,-107.422
1530746655.766,28.809,54.199,-48.340,33.691,-52.734
1530746655.769,-84.961,-15.625,99.121,-70.801,-15.625
1530746655.773,-43.945,-4.395,93.750,-28.320,-145.020
1530746655.777,68.359,62.500,-52.734,83.984,27.344
1530746655.781,44.434,62.500,-75.684,63.477,-97.656
1530746655.785,-72.266,-2.441,67.383,-49.805,-159.668
1530746655.789,-83.496,-18.555,120.605,-56.152,40.527
1530746655.793,29.785,43.945,-18.066,62.500,-114.746
1530746655.797,57.617,67.871,-97.656,89.355,-47.852
1530746655.801,-55.664,9.766,23.926,-19.531,-21.973
1530746655.805,-107.910,-25.391,130.371,-66.895,-166.992
1530746655.808,-4.395,23.926,25.879,33.691,29.785
1530746655.812,63.477,70.312,-99.121,99.121,-111.328
1530746655.816,-15.137,32.227,-11.230,11.230,-161.133
1530746655.820,-100.098,-25.391,122.070,-81.543,46.387
1530746655.824,-30.273,2.930,61.523,-3.906,-100.098
1530746655.828,74.219,67.871,-80.078,95.215,-41.504
1530746655.832,24.902,51.758,-52.734,39.551,-31.250
1530746655.836,-79.102,-9.766,94.238,-60.059,-154.785
1530746655.840,-46.387,-4.395,104.492,-23.438,27.344
1530746655.844,66.406,59.082,-43.457,88.867,-102.051
1530746655.848,61.035,68.359,-79.102,80.078,-138.672
1530746655.851,-51.270,6.836,63.477,-28.809,41.992
1530746655.855,-74.219,-16.113,134.277,-42.969,-103.027
1530746655.859,35.156,46.875,3.418,65.430,-36.133
1530746655.863,77.637,83.496,-89.355,100.586,-54.688
1530746655.867,-23.926,30.273,22.949,-1.953,-167.969
1530746655.871,-85.938,-18.066,139.648,-63.477,35.645
1530746655.875,6.836,27.344,47.363,34.668,-117.676
1530746655.879,91.797,82.031,-84.961,105.957,-126.465
1530746655.883,19.531,45.410,-22.949,20.020,36.621
1530746655.887,-79.102,-20.996,117.676,-73.730,-121.582
1530746655.891,-20.020,6.836,87.402,-10.254,-20.996
1530746655.894,83.984,74.219,-65.918,92.773,-56.152
1530746655.898,36.133,59.570,-64.453,46.387,-165.039
1530746655.902,-83.984,-8.789,86.426,-68.848,44.922
1530746655.906,-67.871,-15.137,115.234,-46.875,-100.098
1530746655.910,47.852,51.270,-31.738,73.242,-125.977
1530746655.914,50.293,68.848,-86.914,74.707,31.250
1530746655.918,-60.547,4.395,50.293,-32.227,-125.977
1530746655.922,-91.309,-31.738,135.742,-56.152,-17.090
1530746655.926,15.625,27.344,5.859,45.898,-60.547
1530746655.930,68.848,70.801,-94.238,96.191,-184.570
1530746655.933,-28.809,16.602,16.113,0.000,41.504
1530746655.937,-110.352,-37.109,138.672,-75.684,-109.375
1530746655.941,-29.297,6.836,55.176,17.090,-121.582
1530746655.945,63.965,68.359,-88.379,97.168,18.066
1530746655.949,-3.418,40.039,-38.086,22.949,-126.465
1530746655.953,-107.422,-26.367,107.422,-74.219,-4.395
1530746655.957,-60.059,-11.230,88.379,-24.414,-70.801
1530746655.961,58.594,62.500,-62.500,87.891,-169.434
1530746655.965,35.645,60.059,-70.801,57.617,38.574
1530746655.969,-83.984,-19.043,84.961,-55.176,-101.074
1530746655.973,-77.637,-35.156,125.488,-49.805,-97.168
1530746655.976,41.992,36.133,-30.273,62.500,13.184
1530746655.980,61.523,59.082,-93.750,75.684,-123.047
1530746655.984,-51.758,-2.441,36.133,-34.668,2.441
1530746655.988,-100.098,-41.504,127.441,-71.289,-88.379
1530746655.992,12.695,14.648,15.137,39.551,-179.688
1530746655.996,77.148,67.383,-99.609,99.609,43.457
1530746656.000,-23.926,19.043,-10.254,6.836,-118.652
1530746656.004,-104.980,-41.504,125.977,-72.754,-90.820
1530746656.008,-22.949,0.000,55.176,9.277,10.254
1530746656.012,72.266,69.336,-91.309,101.074,-151.855
1530746656.015,12.207,48.828,-50.781,42.480,6.348
1530746656.019,-93.262,-15.137,95.703,-64.941,-91.309
1530746656.023,-53.711,-7.324,94.238,-26.855,-173.340
1530746656.027,60.059,58.594,-56.641,87.891,52.246
1530746656.031,33.203,56.641,-83.984,62.500,-105.957
1530746656.035,-83.008,-14.648,61.035,-56.152,-89.355
1530746656.039,-86.914,-30.273,121.582,-62.012,7.324
1530746656.043,30.273,37.598,-16.602,58.105,-142.090
1530746656.047,59.570,73.242,-100.586,86.426,5.859
1530746656.051,-46.387,20.020,15.625,-26.855,-86.426
1530746656.055,-101.074,-23.926,129.395,-75.684,-167.480
1530746656.058,-3.906,23.438,30.762,27.832,44.434
1530746656.062,69.824,72.754,-102.539,95.703,-118.652
1530746656.066,-14.160,33.203,-23.438,13.672,-82.520
1530746656.070,-107.422,-26.367,122.559,-79.590,-13.184
1530746656.074,-35.645,1.465,74.219,-5.859,-153.320
1530746656.078,63.965,63.965,-82.031,93.262,17.578
1530746656.082,9.277,49.805,-61.035,34.180,-100.586
1530746656.086,-95.215,-16.602,94.727,-73.730,-156.250
1530746656.090,-66.895,-15.137,102.539,-48.828,41.016
1530746656.094,44.922,53.223,-49.805,64.941,-111.816
1530746656.098,41.504,68.359,-87.402,61.035,-56.641
1530746656.101,-72.754,1.953,48.340,-55.176,-15.137
1530746656.105,-95.215,-28.809,121.582,-76.172,-147.461
1530746656.109,20.508,30.273,-7.324,41.992,27.344
1530746656.113,63.477,65.430,-101.074,83.008,-101.562
1530746656.117,-41.992,14.648,10.742,-20.996,-166.504
1530746656.121,-105.469,-33.691,126.465,-86.914,41.504
1530746656.125,-7.812,14.648,42.480,9.766,-119.629
1530746656.129,73.242,73.242,-92.773,90.332,-51.758
1530746656.133,-8.789,32.715,-35.156,9.277,-21.973
1530746656.137,-108.887,-34.668,111.816,-95.703,-170.898
1530746656.140,-41.504,-9.766,81.055,-32.715,29.785
1530746656.144,69.824,55.176,-69.336,82.031,-114.746
1530746656.148,30.762,44.922,-65.430,38.086,-166.992
1530746656.152,-76.660,-19.043,86.426,-69.336,47.852
1530746656.156,-58.594,-22.949,115.234,-46.875,-102.539
1530746656.160,57.617,46.387,-35.645,68.359,-44.922
1530746656.164,63.477,65.918,-88.867,71.777,-31.250
1530746656.168,-57.129,-2.441,48.340,-39.551,-158.691
1530746656.172,-95.703,-40.527,135.254,-69.336,26.367
1530746656.176,15.137,20.020,9.277,44.434,-103.516
1530746656.180,66.895,65.430,-97.168,96.191,-141.602
1530746656.183,-29.785,14.160,7.324,-5.859,42.480
1530746656.187,-103.516,-39.551,137.695,-73.730,-107.910
1530746656.191,-16.602,4.883,59.570,22.461,-39.551
1530746656.195,71.289,66.895,-80.566,110.352,-54.688
1530746656.199,3.418,36.133,-30.273,37.598,-172.363
1530746656.203,-95.215,-32.715,110.840,-66.895,35.156
1530746656.207,-48.340,-17.090,93.262,-15.137,-120.117
1530746656.211,60.059,55.176,-61.035,95.703,-131.836
1530746656.215,36.621,53.223,-72.266,64.453,37.109
1530746656.219,-83.984,-20.020,81.543,-54.199,-123.535
1530746656.223,-88.379,-34.180,126.953,-53.223,-22.461
1530746656.226,34.668,36.621,-21.484,62.500,-56.152
1530746656.230,60.059,63.477,-97.168,77.148,-169.434
1530746656.234,-49.805,3.906,35.156,-34.180,44.434
1530746656.238,-92.285,-35.645,135.742,-70.312,-103.516
1530746656.242,24.902,14.160,21.484,49.805,-131.836
1530746656.246,86.426,63.965,-95.703,104.004,32.227
1530746656.250,-15.137,25.391,-9.766,-1.953,-126.465
1530746656.254,-96.680,-24.902,125.000,-80.566,-18.066
1530746656.258,-4.883,17.090,57.129,6.836,-62.500
1530746656.262,98.633,83.008,-93.262,106.445,-190.430
1530746656.265,33.691,63.477,-55.664,45.410,41.504
1530746656.269,-78.613,-1.465,91.797,-66.406,-111.328
1530746656.273,-37.109,9.277,86.914,-28.809,-125.488
1530746656.277,77.148,75.684,-62.988,87.891,18.066
1530746656.281,59.082,78.125,-90.820,78.125,-128.906
1530746656.285,-59.082,9.766,52.734,-40.527,-6.348
1530746656.289,-77.637,-17.578,115.723,-53.711,-71.289
1530746656.293,41.016,49.316,-21.973,71.289,-173.340
1530746656.297,78.613,83.008,-106.934,100.586,38.574
1530746656.301,-31.250,21.484,15.625,-9.277,-104.004
1530746656.305,-87.402,-23.438,129.395,-65.918,-102.051
1530746656.308,10.254,21.484,20.996,27.832,13.672
1530746656.312,82.031,74.707,-113.281,98.633,-125.977
1530746656.316,0.488,40.527,-31.738,19.043,0.488
1530746656.320,-91.309,-23.438,106.934,-72.754,-88.379
1530746656.324,-23.438,2.930,61.035,-2.441,-182.129
1530746656.328,83.008,74.707,-83.984,100.586,43.945
1530746656.332,35.645,61.035,-65.918,49.805,-122.070
1530746656.336,-78.613,-6.348,90.332,-54.688,-95.215
1530746656.340,-51.758,-5.371,103.027,-26.855,10.742
1530746656.344,65.430,60.547,-54.688,88.379,-153.809
1530746656.347,62.988,72.266,-99.609,80.078,4.395
1530746656.351,-52.246,6.348,46.387,-31.250,-90.820
1530746656.355,-78.125,-20.996,126.465,-52.246,-174.805
1530746656.359,37.109,36.133,-9.766,58.594,52.246
1530746656.363,78.125,69.336,-107.910,105.469,-109.375
1530746656.367,-25.879,19.531,3.418,1.953,-93.750
1530746656.371,-91.309,-29.785,130.859,-64.941,7.812
1530746656.375,3.418,15.137,43.945,33.203,-143.555
1530746656.379,88.867,73.242,-94.727,110.352,4.883
1530746656.383,5.859,37.598,-34.668,28.320,-86.426
1530746656.387,-98.145,-27.344,112.305,-63.477,-168.945
1530746656.390,-37.109,-7.812,79.590,-1.465,44.922
1530746656.394,72.754,61.523,-78.613,99.609,-121.094
1530746656.398,35.156,53.711,-74.219,56.152,-85.938
1530746656.402,-80.566,-20.020,75.684,-59.082,-11.230
1530746656.406,-64.941,-24.902,108.887,-41.504,-154.785
1530746656.410,56.641,49.805,-38.086,78.613,16.602
1530746656.414,62.500,68.359,-89.355,89.844,-101.562
1530746656.418,-48.828,5.859,47.852,-24.902,-160.645
1530746656.422,-84.473,-30.273,126.953,-65.430,41.504
1530746656.426,25.391,25.879,0.488,43.945,-113.281
1530746656.430,79.590,72.754,-108.398,95.703,-59.570
1530746656.433,-19.531,27.832,-7.324,0.977,-14.648
1530746656.437,-97.656,-28.320,123.047,-83.496,-148.926
1530746656.441,-4.883,7.812,47.363,12.695,26.855
1530746656.445,100.586,72.266,-94.727,118.164,-103.027
1530746656.449,24.414,50.293,-45.410,41.504,-170.410
1530746656.453,-98.633,-17.578,106.934,-75.195,42.480
1530746656.457,-54.199,-10.742,94.238,-25.391,-121.582
1530746656.461,66.406,60.547,-59.570,94.238,-55.664
1530746656.465,44.434,64.453,-72.754,69.824,-20.996
1530746656.469,-76.660,-5.859,74.219,-47.852,-171.387
1530746656.472,-76.172,-19.043,121.094,-48.828,29.785
1530746656.476,44.922,45.410,-28.320,70.801,-117.188
1530746656.480,66.406,69.336,-103.516,92.773,-171.387
1530746656.484,-49.805,9.766,32.227,-23.438,47.363
1530746656.488,-99.609,-32.715,135.254,-68.359,-106.445
1530746656.492,8.301,22.461,20.020,41.992,-47.852
1530746656.496,75.195,71.777,-99.609,98.145,-29.785
1530746656.500,-13.672,29.785,-14.160,6.348,-160.156
1530746656.504,-98.633,-27.344,126.465,-70.312,25.879
1530746656.508,-19.043,8.301,72.754,10.254,-104.492
1530746656.512,79.590,75.195,-80.078,103.516,-145.508
1530746656.515,20.020,49.805,-53.711,43.457,43.457
1530746656.519,-93.262,-19.043,98.145,-61.035,-111.328
1530746656.523,-58.594,-9.277,100.586,-28.320,-42.969
1530746656.527,64.453,56.641,-53.711,83.496,-54.199
1530746656.531,48.340,59.082,-81.543,70.801,-174.805
1530746656.535,-64.941,-4.883,66.895,-41.504,34.668
1530746656.539,-70.312,-20.508,129.395,-45.898,-121.582
1530746656.543,44.922,45.898,-9.766,71.777,-135.742
1530746656.547,77.148,74.707,-99.121,97.656,37.598
1530746656.551,-33.691,16.113,23.438,-9.766,-125.000
1530746656.555,-92.773,-24.414,135.742,-64.453,-24.414
1530746656.558,7.324,25.879,26.367,34.180,-56.641
1530746656.562,85.449,77.148,-98.633,110.840,-171.875
1530746656.566,6.836,39.062,-20.996,30.762,44.434
1530746656.570,-88.379,-26.367,117.676,-59.570,-104.492
1530746656.574,-19.043,1.953,74.219,14.648,-134.277
1530746656.578,84.473,70.801,-77.637,111.328,32.227
1530746656.582,34.180,55.176,-58.105,57.617,-127.930
1530746656.586,-74.219,-17.090,100.586,-47.852,-19.531
1530746656.590,-57.617,-21.973,116.699,-18.555,-61.523
1530746656.594,59.082,53.223,-46.387,95.703,-190.918
1530746656.597,65.918,66.406,-93.262,87.891,41.504
1530746656.601,-53.711,-5.371,60.059,-23.438,-114.258
1530746656.605,-83.008,-31.738,139.160,-50.293,-129.883
1530746656.609,31.738,31.250,4.395,61.523,19.043
1530746656.613,74.219,72.266,-92.285,106.934,-130.859
1530746656.617,-32.715,22.461,20.020,1.465,-8.301
1530746656.621,-99.609,-31.250,136.230,-65.918,-71.289
1530746656.625,0.977,12.695,44.922,31.738,-175.293
1530746656.629,83.008,71.777,-89.844,111.328,38.086
1530746656.633,1.953,38.574,-32.227,36.621,-104.492
1530746656.637,-93.750,-23.438,112.305,-59.082,-103.516
1530746656.640,-29.785,-6.836,83.496,2.441,14.160
1530746656.644,82.031,60.547,-71.777,113.770,-128.906
1530746656.648,37.598,57.129,-69.336,66.406,-1.465
1530746656.652,-84.473,-11.230,81.543,-55.176,-87.402
1530746656.656,-63.477,-16.113,119.141,-33.203,-183.594
1530746656.660,58.594,55.176,-28.320,90.332,43.457
1530746656.664,68.359,72.754,-94.727,88.379,-123.047
1530746656.668,-42.480,10.254,35.156,-29.297,-97.656
1530746656.672,-82.520,-22.461,127.930,-62.012,11.719
1530746656.676,27.344,34.668,9.277,46.875,-154.785
1530746656.679,90.820,82.031,-103.027,104.492,2.930
1530746656.683,-9.766,34.668,-3.906,8.789,-90.820
1530746656.687,-90.820,-23.438,126.953,-67.871,-176.758
1530746656.691,-3.906,12.207,51.758,19.531,52.246
1530746656.695,80.078,75.195,-91.309,112.305,-109.863
1530746656.699,18.066,50.781,-41.016,44.434,-94.727
1530746656.703,-81.543,-14.648,109.863,-64.453,8.301
1530746656.707,-27.832,2.441,92.285,-21.484,-145.020
1530746656.711,89.844,72.266,-64.941,90.820,3.906
1530746656.715,62.500,67.383,-79.590,62.500,-85.938
1530746656.719,-53.711,0.488,72.266,-50.781,-170.410
1530746656.722,-57.129,-12.207,124.512,-44.922,44.922
1530746656.726,53.223,49.805,-20.508,70.801,-124.023
1530746656.730,73.730,74.219,-93.750,94.727,-88.867
1530746656.734,-32.715,15.137,29.297,-13.672,-10.254
1530746656.738,-84.961,-25.879,134.277,-58.594,-155.762
1530746656.742,17.090,29.785,26.367,48.828,16.602
1530746656.746,82.031,79.102,-103.027,108.887,-102.539
1530746656.750,-14.648,33.691,-14.160,18.066,-164.551
1530746656.754,-100.586,-23.926,126.465,-62.012,41.504
1530746656.758,-20.996,5.859,71.777,16.113,-114.746
1530746656.762,76.172,69.336,-76.660,109.375,-62.500
1530746656.765,20.020,51.758,-58.594,57.617,-13.672
1530746656.769,-90.332,-17.090,96.191,-49.805,-149.902
1530746656.773,-54.688,-9.277,106.445,-19.043,25.879
1530746656.777,64.453,60.059,-49.316,100.098,-104.004
1530746656.781,49.316,62.012,-82.031,90.820,-173.340
1530746656.785,-67.383,-3.906,63.965,-24.414,42.480
1530746656.789,-83.984,-23.438,132.812,-40.039,-122.559
1530746656.793,35.156,39.551,-2.441,74.707,-57.129
1530746656.797,76.172,73.242,-92.285,99.609,-20.020
1530746656.801,-37.598,13.672,22.949,-9.277,-172.363
1530746656.804,-103.027,-34.180,131.836,-65.918,29.297
1530746656.808,-5.371,16.113,33.203,31.250,-117.676
1530746656.812,71.777,69.824,-96.191,110.840,-173.828
1530746656.816,-6.836,32.227,-22.949,27.344,48.340
1530746656.820,-99.609,-29.297,121.094,-67.383,-107.422
1530746656.824,-34.180,-1.953,76.172,0.000,-50.293
1530746656.828,67.383,63.965,-75.684,96.680,-30.273
1530746656.832,26.855,50.781,-60.547,53.711,-162.109
1530746656.836,-83.984,-20.020,90.332,-55.176,25.879
1530746656.840,-66.406,-23.926,112.305,-33.203,-105.957
1530746656.844,54.199,48.828,-36.621,89.355,-149.414
1530746656.847,60.547,66.406,-82.520,92.285,43.457
1530746656.851,-52.734,-2.441,55.176,-20.020,-112.793
1530746656.855,-83.008,-35.156,125.488,-45.410,-44.922
1530746656.859,30.762,28.320,-0.488,68.359,-52.734
1530746656.863,83.008,70.312,-98.633,112.305,-176.270
1530746656.867,-21.484,16.602,8.789,1.953,34.180
1530746656.871,-91.797,-35.645,135.742,-70.312,-121.582
1530746656.875,1.465,9.277,49.805,29.297,-138.672
1530746656.879,83.496,66.406,-89.844,109.863,38.086
1530746656.883,12.695,35.645,-32.227,35.645,-125.977
1530746656.887,-88.867,-28.809,111.816,-62.500,-26.367
1530746656.890,-38.086,-10.742,82.520,-6.836,-54.688
1530746656.894,75.684,59.082,-71.289,104.980,-172.852
1530746656.898,43.945,49.805,-72.754,65.430,43.457
1530746656.902,-67.383,-17.578,79.590,-45.410,-104.492
1530746656.906,-56.152,-23.438,114.746,-27.344,-137.207
1530746656.910,60.059,43.945,-31.738,88.867,32.715
1530746656.914,72.266,68.848,-87.891,95.703,-128.418
1530746656.918,-37.598,4.883,43.457,-20.508,-20.996
1530746656.922,-80.566,-36.133,133.789,-57.617,-60.059
1530746656.926,22.461,19.531,12.695,52.246,-191.406
1530746656.929,82.031,65.918,-101.074,107.422,41.016
1530746656.933,-15.137,15.137,1.953,12.207,-114.258
1530746656.937,-91.309,-42.969,136.230,-63.965,-131.348
1530746656.941,-2.441,-1.465,56.152,20.996,20.508
1530746656.945,91.797,62.012,-93.262,104.980,-132.324
1530746656.949,30.762,36.621,-47.363,42.480,-10.742
1530746656.953,-77.148,-28.320,104.004,-56.152,-69.336
1530746656.957,-33.203,-13.672,97.656,-11.230,-175.781
1530746656.961,78.125,56.152,-51.758,103.516,37.598
1530746656.965,52.734,55.176,-73.242,75.195,-105.469
1530746656.969,-62.988,-14.160,73.730,-43.457,-106.445
1530746656.972,-68.359,-29.297,127.930,-44.434,15.137
1530746656.976,51.270,39.551,-17.090,75.195,-128.906
1530746656.980,77.637,67.383,-95.703,102.051,-3.418
1530746656.984,-34.668,5.859,29.297,-11.230,-86.914
1530746656.988,-68.359,-29.785,132.812,-53.223,-185.059
1530746656.992,36.133,19.043,27.344,58.594,43.457
1530746656.996,78.613,58.594,-89.355,114.746,-123.535
1530746657.000,-18.066,19.531,4.395,26.855,-99.121
1530746657.004,-103.516,-43.945,141.602,-55.176,12.695
1530746657.008,-26.855,-17.578,73.730,21.484,-154.297
1530746657.012,71.289,51.270,-76.172,117.676,1.953
1530746657.015,14.648,31.250,-48.828,54.688,-90.332
1530746657.019,-88.867,-38.086,106.934,-51.270,-177.246
1530746657.023,-51.758,-30.273,114.746,-14.648,52.246
1530746657.027,62.988,40.039,-44.434,99.121,-111.816
1530746657.031,56.641,50.293,-77.637,90.820,-98.145
1530746657.035,-56.152,-14.160,70.801,-24.902,10.742
1530746657.039,-73.242,-32.715,140.137,-38.086,-144.043
1530746657.043,46.387,36.621,-2.441,75.684,5.371
1530746657.047,90.820,74.219,-97.656,111.816,-118.652
1530746657.051,-20.508,15.625,28.809,9.766,-98.633
1530746657.054,-85.449,-34.180,146.973,-54.688,-315.918
1530746657.058,17.578,15.625,45.410,47.363,-986.328
1530746657.062,97.168,67.383,-89.355,124.023,-974.121
1530746657.066,16.113,25.391,-18.066,42.480,-950.684
1530746657.070,-78.613,-36.621,126.953,-45.898,-974.121
1530746657.074,-12.695,-5.371,83.984,16.113,-969.238
1530746657.078,95.215,64.453,-69.824,114.746,-969.238
1530746657.082,49.316,55.176,-57.617,69.824,-969.238
1530746657.086,-64.453,-12.207,93.262,-39.062,-969.238
1530746657.090,-44.434,-18.066,120.605,-15.625,-969.238
1530746657.094,70.312,54.199,-36.133,103.027,-969.238
1530746657.097,73.730,71.777,-89.355,103.027,-969.238
1530746657.101,-42.969,0.000,55.664,-9.277,-969.238
1530746657.105,-77.637,-39.062,133.789,-40.039,-969.238
1530746657.109,39.062,27.832,4.395,75.684,-969.238
1530746657.113,88.379,72.266,-93.750,122.070,-969.238
1530746657.117,-15.137,16.602,12.695,14.648,-969.238
1530746657.121,-84.473,-32.227,130.371,-54.688,-969.238
1530746657.125,11.719,12.695,47.852,38.574,-969.238
1530746657.129,102.051,72.754,-88.867,123.047,-969.238
1530746657.133,29.297,45.898,-35.645,55.664,-969.238
1530746657.136,-76.172,-22.461,117.188,-41.504,-969.238
1530746657.140,-26.367,-6.836,89.355,10.254,-969.238
1530746657.144,85.449,64.453,-68.359,121.094,-969.238
1530746657.148,56.641,59.082,-64.941,90.332,-969.238
1530746657.152,-56.152,-9.766,87.891,-23.926,-969.238
1530746657.156,-51.758,-19.531,126.465,-11.230,-969.238
1530746657.160,69.824,52.734,-23.926,101.074,-969.238
1530746657.164,86.914,79.590,-91.309,111.328,-971.191
1530746657.168,-29.785,11.230,40.527,0.977,-959.961
1530746657.172,-73.730,-32.227,136.230,-41.992,-976.074
1530746657.176,32.227,26.367,12.207,70.801,-933.105
1530746657.179,95.703,75.684,-106.934,129.395,-647.461
1530746657.183,4.883,26.855,-0.977,38.086,-434.082
1530746657.187,-77.637,-31.738,132.812,-41.504,-415.039
1530746657.191,2.930,9.766,53.711,39.551,-311.035
1530746657.195,100.098,78.125,-92.285,129.395,-89.844
1530746657.199,35.156,54.199,-45.898,63.477,11.230
1530746657.203,-70.801,-17.090,104.004,-40.527,-34.180
1530746657.207,-20.996,-5.859,91.309,4.883,-35.645
1530746657.211,91.797,64.941,-61.523,112.793,125.488
1530746657.215,68.359,67.383,-84.961,82.031,273.926
1530746657.219,-41.504,-1.465,60.547,-20.996,256.836
1530746657.222,-51.758,-23.926,120.117,-19.043,208.496
1530746657.226,50.293,36.133,-16.602,86.426,328.125
1530746657.230,62.988,61.523,-92.773,105.469,513.672
1530746657.234,-48.340,-2.930,34.180,-2.930,494.141
1530746657.238,-97.168,-49.316,142.578,-47.852,404.785
1530746657.242,2.930,-1.465,41.992,59.082,487.305
1530746657.246,68.359,45.410,-78.125,127.441,637.695
1530746657.250,-19.043,-1.953,5.371,42.969,672.852
1530746657.254,-105.957,-64.453,144.531,-46.875,613.770
1530746657.258,-37.598,-34.180,87.402,20.996,616.699
1530746657.261,71.777,32.715,-59.570,130.859,722.656
1530746657.265,23.438,18.555,-36.133,84.961,756.348
1530746657.269,-93.750,-50.293,104.980,-28.320,688.477
1530746657.273,-61.035,-45.898,110.840,2.441,657.715
1530746657.277,60.547,24.902,-42.480,119.141,768.066
1530746657.281,57.617,35.156,-76.172,113.770,857.910
1530746657.285,-55.664,-26.367,68.359,-2.441,838.379
1530746657.289,-74.219,-48.340,136.230,-22.461,774.414
1530746657.293,40.527,15.137,-0.977,98.633,852.539
1530746657.297,83.496,52.734,-96.680,134.766,952.148
1530746657.301,-18.555,-2.441,16.113,23.438,929.199
1530746657.304,-80.566,-47.852,132.324,-37.109,883.789
1530746657.308,18.066,2.930,37.598,64.941,907.715
1530746657.312,98.633,59.570,-95.703,143.066,962.891
1530746657.316,21.973,22.461,-27.344,57.617,980.469
1530746657.320,-70.801,-41.016,117.676,-40.039,919.434
1530746657.324,-7.812,-14.160,81.543,32.227,910.645
1530746657.328,101.562,57.617,-71.777,138.184,980.469
1530746657.332,60.059,45.898,-62.988,92.285,996.582
1530746657.336,-56.641,-22.949,86.426,-15.137,975.586
1530746657.340,-37.109,-26.367,111.816,7.812,952.148
1530746657.344,83.496,43.945,-34.668,122.070,983.887
1530746657.347,88.379,60.547,-86.426,123.535,-994.141
1530746657.351,-26.855,-2.930,48.340,16.602,982.422
1530746657.355,-54.199,-33.691,133.789,-16.602,954.590
1530746657.359,62.012,21.973,7.324,92.285,979.980
1530746657.363,104.004,62.012,-98.145,138.672,-998.535
1530746657.367,0.488,9.766,4.883,36.133,999.023
1530746657.371,-65.430,-39.062,126.953,-28.809,983.398
1530746657.375,25.391,4.395,44.922,60.547,981.934
1530746657.379,114.746,62.988,-90.820,143.066,-999.512
1530746657.383,42.480,35.156,-37.598,67.383,999.512
1530746657.386,-61.523,-31.250,105.957,-30.273,997.070
1530746657.390,-11.230,-15.625,87.891,27.344,998.047
1530746657.394,98.633,52.734,-65.918,130.859,999.512
1530746657.398,67.871,49.805,-77.637,94.727,999.512
1530746657.402,-47.852,-15.137,71.777,-16.602,997.559
1530746657.406,-42.480,-26.367,113.770,-9.766,995.605
1530746657.410,83.984,45.898,-33.203,105.957,999.023
1530746657.414,102.539,71.289,-101.074,119.629,999.512
1530746657.418,-12.207,8.301,28.809,11.719,999.023
1530746657.422,-54.688,-31.738,125.488,-30.273,999.512
1530746657.426,51.758,23.438,11.719,78.613,999.512
1530746657.429,114.258,74.219,-99.609,140.137,999.512
1530746657.433,13.672,23.926,-5.859,43.457,999.512
1530746657.437,-70.312,-33.203,121.582,-35.156,999.512
1530746657.441,13.184,6.348,53.711,48.340,999.512
1530746657.445,106.934,65.430,-94.727,138.184,999.512
1530746657.449,46.875,42.480,-59.570,75.195,999.512
1530746657.453,-56.641,-20.996,96.191,-29.785,999.512
1530746657.457,-19.043,-9.277,93.262,11.230,999.512
1530746657.461,93.262,60.547,-62.012,122.559,999.512
1530746657.465,79.590,68.848,-83.496,104.492,999.512
1530746657.468,-34.668,0.977,64.941,-8.789,999.512
1530746657.472,-41.992,-22.461,122.559,-19.531,999.512
1530746657.476,75.684,43.945,-21.484,98.633,999.512
1530746657.480,99.121,72.266,-104.980,125.000,999.512
1530746657.484,-12.207,9.766,18.066,15.625,999.512
1530746657.488,-63.965,-31.738,122.070,-34.180,999.512
1530746657.492,40.039,24.902,16.113,70.312,999.512
1530746657.496,114.746,78.125,-104.004,141.602,999.512
1530746657.500,26.367,38.574,-22.461,51.758,999.512
1530746657.504,-67.871,-22.461,113.770,-34.180,999.512
1530746657.508,2.930,4.395,65.430,40.527,999.512
1530746657.511,98.633,66.406,-81.055,137.207,999.512
1530746657.515,47.363,46.387,-61.523,81.055,999.512
1530746657.519,-57.129,-19.531,86.426,-23.926,999.512
1530746657.523,-20.996,-12.695,96.191,12.695,999.512
1530746657.527,93.750,58.105,-48.340,126.465,999.512
1530746657.531,82.520,66.406,-83.008,113.281,999.512
1530746657.535,-33.203,0.000,52.246,-6.836,999.512
1530746657.539,-48.828,-23.438,123.535,-28.320,999.512
1530746657.543,69.824,36.621,-11.719,83.008,999.512
1530746657.547,118.164,76.172,-104.980,122.559,999.512
1530746657.551,13.184,21.973,13.184,23.438,999.512
1530746657.554,-59.570,-29.785,128.418,-42.480,999.512
1530746657.558,34.668,18.555,33.691,52.246,999.512
1530746657.562,113.770,74.219,-101.074,132.812,999.512
1530746657.566,31.738,35.645,-33.691,61.035,999.512
1530746657.570,-61.523,-24.414,111.328,-27.832,999.512
1530746657.574,-0.488,-1.465,77.148,33.203,999.512
1530746657.578,99.121,67.383,-75.195,136.230,999.512
1530746657.582,59.082,59.082,-67.871,97.168,999.512
1530746657.586,-56.641,-11.230,83.984,-19.043,999.512
1530746657.590,-42.969,-14.160,108.398,-6.836,999.512
1530746657.593,79.102,51.758,-39.062,110.352,999.512
1530746657.597,87.891,69.336,-91.309,117.676,999.512
1530746657.601,-24.902,5.371,43.457,9.277,999.512
1530746657.605,-51.758,-31.738,123.047,-23.926,999.512
1530746657.609,66.406,32.227,1.465,91.309,999.512
1530746657.613,117.676,77.637,-96.191,143.066,999.512
1530746657.617,9.277,22.461,3.906,38.574,999.512
1530746657.621,-61.523,-29.297,125.977,-33.203,999.512
1530746657.625,33.691,15.137,49.805,59.082,999.512
1530746657.629,119.629,72.266,-89.844,141.113,999.512
1530746657.633,50.781,40.527,-42.969,65.918,999.512
1530746657.636,-54.688,-26.855,104.980,-27.344,999.512
1530746657.640,-8.301,-9.277,85.938,24.902,999.512
1530746657.644,104.492,63.477,-66.406,129.883,999.512
1530746657.648,75.684,57.617,-76.172,98.145,999.512
1530746657.652,-44.434,-12.207,70.801,-15.625,999.512
1530746657.656,-40.039,-21.484,115.234,-7.812,999.512
1530746657.660,81.543,41.992,-29.785,105.957,999.512
1530746657.664,96.680,62.988,-96.680,121.094,999.512
1530746657.668,-16.113,-2.441,34.668,10.742,999.512
1530746657.672,-56.641,-41.016,131.836,-29.785,999.512
1530746657.676,52.246,19.043,20.996,79.590,999.512
1530746657.679,116.211,65.918,-95.703,135.254,999.512
1530746657.683,20.996,20.508,-5.371,44.434,999.512
1530746657.687,-66.895,-34.668,131.348,-32.715,999.512
1530746657.691,15.137,4.395,60.059,43.457,999.512
1530746657.695,114.258,68.359,-83.984,138.672,999.512
1530746657.699,53.711,41.992,-39.551,82.031,999.512
1530746657.703,-48.340,-20.020,105.469,-23.438,999.512
1530746657.707,-11.719,-7.812,99.121,14.160,999.512
1530746657.711,97.656,60.059,-50.293,125.488,999.512
1530746657.715,78.125,64.941,-74.707,105.957,999.512
1530746657.718,-35.645,-0.488,68.359,-2.930,999.512
1530746657.722,-43.945,-24.414,128.418,-11.230,999.512
1530746657.726,73.730,40.527,-12.207,102.051,999.512
1530746657.730,105.469,75.684,-95.215,129.395,999.512
1530746657.734,-7.324,14.160,27.832,19.043,999.512
1530746657.738,-67.383,-30.762,129.883,-35.156,999.512
1530746657.742,31.738,20.020,25.879,63.477,999.512
1530746657.746,105.957,73.730,-92.285,129.883,999.512
1530746657.750,21.973,36.621,-11.230,45.898,999.512
1530746657.754,-70.312,-28.809,123.047,-41.016,999.512
1530746657.758,6.348,-2.930,70.801,30.762,999.512
1530746657.761,103.516,65.430,-73.730,128.418,999.512
1530746657.765,48.340,48.828,-50.781,79.590,999.512
1530746657.769,-53.711,-19.043,100.098,-32.715,999.023
1530746657.773,-25.391,-15.137,117.188,-4.883,999.023
1530746657.777,93.262,55.664,-37.109,115.234,999.512
1530746657.781,92.773,65.430,-81.055,106.445,999.512
1530746657.785,-24.902,-6.836,62.988,-10.254,999.512
1530746657.789,-49.316,-32.227,138.672,-28.809,999.512
1530746657.793,64.941,33.203,6.836,88.379,999.512
1530746657.797,105.469,70.312,-90.820,123.047,999.512
1530746657.800,-1.465,14.160,22.461,17.578,999.512
1530746657.804,-70.801,-34.668,141.113,-40.527,999.512
1530746657.808,26.855,16.602,47.852,56.152,999.023
1530746657.812,111.816,76.660,-81.055,130.859,999.023
1530746657.816,27.832,36.621,-13.672,47.852,-1000.000
1530746657.820,-71.777,-29.785,126.465,-43.457,992.188
1530746657.824,-9.277,-3.906,89.355,24.902,989.258
1530746657.828,98.633,66.895,-62.012,126.465,998.047
1530746657.832,57.129,57.617,-49.805,79.590,-997.070
1530746657.836,-57.617,-14.160,99.121,-30.762,983.887
1530746657.840,-41.016,-17.090,116.211,-15.137,979.492
1530746657.843,77.637,55.176,-29.785,102.539,999.023
1530746657.847,87.402,70.312,-82.520,106.934,-998.535
1530746657.851,-29.297,3.906,55.664,-6.348,990.723
1530746657.855,-62.988,-23.926,144.043,-34.668,974.609
1530746657.859,47.852,36.133,22.461,79.102,989.746
1530746657.863,97.168,77.637,-81.055,125.000,-997.559
1530746657.867,-0.488,30.762,15.137,27.832,994.141
1530746657.871,-74.219,-25.879,140.137,-43.945,958.984
1530746657.875,11.230,10.254,63.965,43.457,963.867
1530746657.879,98.145,70.801,-75.195,132.812,996.582
1530746657.883,30.273,44.922,-25.391,62.988,998.535
1530746657.886,-67.871,-19.043,123.047,-35.645,936.523
1530746657.890,-14.648,-3.906,112.793,19.043,914.551
1530746657.894,93.262,63.965,-36.133,127.441,971.680
1530746657.898,61.523,61.035,-53.711,98.145,990.234
1530746657.902,-50.293,-4.395,90.332,-13.184,969.238
1530746657.906,-47.363,-16.602,137.695,-12.207,916.504
1530746657.910,67.871,47.363,-7.324,104.492,951.172
1530746657.914,89.844,72.754,-77.637,123.535,995.117
1530746657.918,-20.508,12.695,48.340,13.184,939.453
1530746657.922,-67.871,-25.391,145.508,-32.715,900.391
1530746657.925,38.086,37.109,35.645,75.195,922.363
1530746657.929,99.609,86.914,-80.078,135.742,959.961
1530746657.933,7.812,33.691,7.324,39.551,969.727
1530746657.937,-72.754,-23.438,140.625,-46.387,887.695
1530746657.941,7.324,13.184,79.102,33.691,869.141
1530746657.945,100.098,72.754,-65.918,130.371,951.172
1530746657.949,37.598,49.316,-32.227,67.383,979.492
1530746657.953,-66.406,-14.648,118.164,-37.109,933.105
1530746657.957,-25.391,-0.488,112.305,2.930,878.418
1530746657.961,89.844,66.895,-42.480,118.652,906.250
1530746657.965,78.125,67.383,-54.688,101.562,949.219
1530746657.968,-41.504,-2.930,92.773,-14.648,889.648
1530746657.972,-56.152,-21.484,143.066,-19.043,838.867
1530746657.976,63.965,47.852,2.930,97.656,893.066
1530746657.980,99.609,73.242,-80.566,124.512,907.227
1530746657.984,-12.207,15.625,40.039,19.043,866.211
1530746657.988,-72.754,-21.973,149.902,-36.621,807.129
1530746657.992,33.203,26.855,46.875,63.477,846.680
1530746657.996,111.816,79.590,-79.590,139.160,928.223
1530746658.000,20.508,44.434,-3.418,50.781,903.809
1530746658.004,-75.684,-15.137,136.719,-41.016,803.223
1530746658.008,-5.859,7.324,89.844,28.809,772.461
1530746658.011,94.238,72.266,-62.500,127.441,837.891
1530746658.015,45.898,55.176,-43.457,75.195,896.973
1530746658.019,-60.547,-12.207,108.887,-37.598,832.031
1530746658.023,-34.668,-8.301,124.023,-4.883,741.211
1530746658.027,80.566,56.152,-28.320,111.816,832.520
1530746658.031,73.730,66.406,-69.336,104.004,887.207
1530746658.035,-43.457,3.906,75.684,-8.789,802.246
1530746658.039,-64.453,-23.926,150.879,-28.809,722.656
1530746658.043,47.852,35.156,18.555,88.867,774.902
1530746658.047,92.285,74.219,-80.078,127.930,864.258
1530746658.050,-4.395,23.926,32.227,26.367,820.312
1530746658.054,-65.430,-25.391,152.832,-37.109,722.656
1530746658.058,24.902,19.043,59.082,55.176,726.562
1530746658.062,100.586,78.613,-76.172,135.742,858.398
1530746658.066,25.391,42.480,-14.160,49.316,874.512
1530746658.070,-68.359,-18.555,130.859,-51.758,778.809
1530746658.074,-10.742,6.348,103.516,18.066,766.113
1530746658.078,95.215,63.477,-47.852,129.883,832.520
1530746658.082,57.617,49.805,-47.363,85.938,871.094
1530746658.086,-64.941,-11.230,97.168,-41.504,812.012
1530746658.090,-50.293,-6.836,124.512,-31.250,761.230
1530746658.093,80.078,63.477,-25.879,93.262,809.082
1530746658.097,96.191,79.102,-82.031,104.004,843.262
1530746658.101,-19.531,17.578,50.781,-11.719,774.902
1530746658.105,-49.805,-14.160,137.207,-39.551,677.734
1530746658.109,67.383,51.270,14.160,74.219,713.867
1530746658.113,118.652,96.191,-95.703,125.488,805.176
1530746658.117,20.020,37.598,8.301,31.738,794.434
1530746658.121,-56.152,-20.508,134.277,-41.992,699.707
1530746658.125,25.391,19.043,54.199,45.410,708.496
1530746658.129,113.770,80.078,-85.938,132.324,816.895
1530746658.133,44.922,49.805,-33.691,61.035,833.984
1530746658.136,-58.594,-19.531,113.770,-37.109,767.090
1530746658.140,-7.324,-4.395,94.238,19.531,709.473
1530746658.144,107.910,68.848,-55.176,131.348,772.461
1530746658.148,81.055,66.895,-66.406,100.098,846.191
1530746658.152,-40.039,-4.883,80.078,-17.578,773.438
1530746658.156,-41.016,-20.996,128.418,-17.090,678.223
1530746658.160,72.754,46.387,-15.137,97.656,719.727
1530746658.164,89.355,72.754,-87.891,113.281,822.754
1530746658.168,-22.461,10.254,39.062,1.953,795.898
1530746658.172,-68.359,-28.809,140.137,-41.992,659.180
1530746658.175,37.109,25.879,31.250,65.430,708.496
1530746658.179,102.051,76.660,-85.449,123.047,831.055
1530746658.183,12.207,29.297,3.906,34.668,799.316
1530746658.187,-69.336,-30.273,139.648,-44.434,667.480
1530746658.191,12.207,5.371,78.613,35.156,632.324
1530746658.195,106.445,67.383,-69.336,129.395,709.473
1530746658.199,50.293,40.527,-38.086,69.824,764.648
1530746658.203,-56.152,-30.273,113.281,-32.715,693.848
1530746658.207,-20.996,-21.973,109.863,2.441,645.508
1530746658.211,93.750,46.875,-43.945,111.328,741.699
1530746658.215,73.730,54.199,-67.383,92.285,783.691
1530746658.218,-44.434,-8.301,76.660,-18.555,731.445
1530746658.222,-54.688,-29.785,138.184,-27.344,639.160
1530746658.226,58.594,35.645,2.930,84.961,690.918
1530746658.230,90.332,69.824,-85.449,115.234,790.527
1530746658.234,-10.742,12.695,33.691,12.207,721.680
1530746658.238,-65.430,-33.203,146.484,-41.016,623.535
1530746658.242,27.832,18.555,42.480,56.641,650.391
1530746658.246,100.098,73.730,-85.938,127.441,767.090
1530746658.250,12.695,33.691,-13.184,37.598,746.094
1530746658.254,-77.637,-23.926,130.859,-49.316,641.602
1530746658.257,-7.812,7.324,88.867,20.996,675.781
1530746658.261,92.773,72.266,-61.523,114.746,741.699
1530746658.265,43.945,56.641,-45.410,65.918,740.234
1530746658.269,-70.312,-11.230,102.539,-42.480,677.734
1530746658.273,-42.969,-11.719,118.652,-18.555,620.117
1530746658.277,76.660,53.711,-29.785,98.633,697.754
1530746658.281,74.219,66.895,-71.289,96.680,776.855
1530746658.285,-43.945,6.348,65.918,-18.555,690.430
1530746658.289,-69.824,-22.949,137.695,-44.434,573.242
1530746658.293,46.387,38.086,10.742,68.359,613.281
1530746658.297,90.332,75.195,-85.938,112.305,695.312
1530746658.300,-18.555,20.996,23.926,8.789,687.988
1530746658.304,-82.520,-27.832,142.578,-58.594,602.539
1530746658.308,18.555,18.066,53.711,33.691,605.957
1530746658.312,102.051,75.195,-78.613,111.816,708.496
1530746658.316,23.926,38.574,-19.043,33.203,681.641
1530746658.320,-69.336,-27.344,123.047,-58.594,596.191
1530746658.324,-7.812,-5.371,95.703,7.812,600.586
1530746658.328,95.215,62.500,-54.199,112.305,690.918
1530746658.332,55.664,55.664,-54.199,76.172,744.629
1530746658.336,-62.500,-13.184,94.238,-32.715,636.230
1530746658.340,-50.781,-22.949,126.953,-21.484,569.336
1530746658.343,66.406,49.805,-20.996,95.215,667.480
1530746658.347,73.242,71.289,-80.078,108.887,739.746
1530746658.351,-39.551,3.418,50.293,-2.441,696.289
1530746658.355,-77.148,-33.691,138.184,-40.039,586.914
1530746658.359,32.715,25.879,23.438,72.266,600.586
1530746658.363,93.750,75.195,-81.543,124.512,695.801
1530746658.367,-2.441,25.391,15.137,25.879,658.691
1530746658.371,-82.031,-33.691,141.113,-47.363,550.781
1530746658.375,7.324,11.230,71.777,41.016,588.379
1530746658.379,100.586,75.195,-67.871,129.883,680.176
1530746658.382,31.738,43.457,-24.902,60.059,679.688
1530746658.386,-75.195,-23.438,116.699,-46.387,610.840
1530746658.390,-27.832,-7.324,102.051,0.488,565.430
1530746658.394,86.914,62.500,-47.363,113.770,628.418
1530746658.398,63.965,62.988,-59.570,87.891,691.406
1530746658.402,-58.105,-5.859,84.961,-32.715,652.344
1530746658.406,-60.059,-19.531,132.324,-30.762,549.316
1530746658.410,63.965,45.410,-9.277,89.355,590.820
1530746658.414,86.426,69.336,-82.520,113.281,671.875
1530746658.418,-23.438,9.766,46.387,4.883,630.859
1530746658.422,-68.848,-28.809,146.973,-44.922,530.273
1530746658.425,35.645,27.832,36.133,60.547,558.105
1530746658.429,104.004,77.637,-83.984,126.465,673.828
1530746658.433,14.160,31.738,2.930,36.621,655.762
1530746658.437,-74.219,-28.320,138.184,-46.875,570.801
1530746658.441,-0.488,7.812,75.684,28.809,566.406
1530746658.445,93.262,71.289,-68.848,117.676,640.625
1530746658.449,37.109,45.410,-32.715,62.012,647.949
1530746658.453,-74.707,-24.414,113.281,-42.480,562.988
1530746658.457,-42.480,-15.137,116.211,-8.301,521.973
1530746658.461,79.102,51.270,-30.273,114.258,574.219
1530746658.465,72.754,53.711,-62.500,104.980,645.996
1530746658.468,-47.852,-4.395,72.754,-17.578,596.191
1530746658.472,-62.500,-18.066,133.789,-35.156,509.766
1530746658.476,58.105,48.340,0.488,82.031,573.242
1530746658.480,95.215,85.938,-88.867,110.352,638.184
1530746658.484,-8.301,35.156,22.949,3.906,610.352
1530746658.488,-67.871,-9.766,130.859,-55.176,484.863
1530746658.492,31.250,38.574,33.691,33.691,489.746
1530746658.496,104.492,95.703,-95.215,101.074,624.512
1530746658.500,20.508,60.547,-20.508,23.926,617.188
1530746658.504,-71.289,0.488,122.559,-66.406,539.551
1530746658.507,-1.953,28.320,75.195,3.418,520.508
1530746658.511,103.516,94.238,-74.707,106.445,584.961
1530746658.515,58.594,77.148,-56.152,59.082,626.465
1530746658.519,-55.664,6.348,94.238,-45.410,580.566
1530746658.523,-33.203,3.906,111.816,-21.484,519.531
1530746658.527,83.496,71.777,-40.039,91.797,553.223
1530746658.531,81.055,84.961,-82.031,92.773,623.047
1530746658.535,-33.691,16.602,60.547,-21.973,562.012
1530746658.539,-62.012,-13.184,133.789,-47.852,460.449
1530746658.543,46.387,46.387,8.789,69.336,524.902
1530746658.547,88.867,82.031,-87.402,106.445,633.301
1530746658.550,-13.184,30.273,15.625,2.930,584.961
1530746658.554,-77.148,-20.020,137.695,-61.523,496.094
1530746658.558,16.602,22.461,53.711,33.203,506.836
1530746658.562,93.262,81.543,-80.078,115.723,576.172
1530746658.566,17.090,49.316,-20.996,33.203,593.262
1530746658.570,-78.613,-16.602,124.512,-66.406,498.047
1530746658.574,-22.949,0.977,96.680,-4.883,482.910
1530746658.578,86.426,66.895,-59.570,102.539,562.012
1530746658.582,47.852,59.570,-61.035,61.035,604.492
1530746658.586,-70.312,-10.254,91.797,-54.688,563.477
1530746658.589,-57.129,-20.020,128.418,-38.574,461.914
1530746658.593,60.059,49.316,-18.066,85.449,529.785
1530746658.597,72.266,71.777,-78.125,96.191,629.883
1530746658.601,-38.086,7.324,53.711,-12.695,598.145
1530746658.605,-75.195,-26.855,146.484,-44.434,473.145
1530746658.609,38.574,34.180,28.320,58.594,525.391
1530746658.613,93.262,78.125,-85.449,111.328,655.273
1530746658.617,-8.301,27.832,8.301,22.461,607.910
1530746658.621,-88.379,-28.320,144.531,-55.664,524.902
1530746658.625,-3.418,12.695,71.289,25.391,461.914
1530746658.629,90.332,73.730,-73.242,116.211,563.965
1530746658.632,24.902,46.875,-22.949,55.176,632.324
1530746658.636,-77.637,-18.066,125.488,-47.363,474.609
1530746658.640,-34.180,-6.348,112.305,-5.859,387.695
1530746658.644,82.520,62.988,-43.457,104.492,502.441
1530746658.648,59.570,65.430,-61.035,78.613,582.031
1530746658.652,-60.059,-2.930,87.891,-34.668,524.414
1530746658.656,-57.617,-15.625,140.625,-37.109,428.223
1530746658.660,65.430,56.152,-0.977,79.102,479.980
1530746658.664,90.820,83.008,-76.660,103.516,586.426
1530746658.668,-23.438,20.996,46.387,-5.371,507.812
1530746658.672,-76.660,-21.484,148.438,-53.223,415.527
1530746658.675,24.902,29.297,42.480,55.664,500.977
1530746658.679,92.773,79.102,-78.613,121.094,550.781
1530746658.683,4.395,35.645,3.418,27.344,540.527
1530746658.687,-80.078,-23.926,142.090,-53.711,458.008
1530746658.691,0.000,9.277,83.984,23.438,455.566
1530746658.695,100.586,76.172,-64.941,122.070,562.500
1530746658.699,44.434,58.594,-32.715,68.359,611.816
1530746658.703,-65.918,-6.836,120.605,-39.062,510.742
1530746658.707,-34.668,-3.418,122.559,-8.301,414.551
1530746658.711,75.195,64.453,-33.203,99.121,498.047
1530746658.714,57.617,69.824,-66.406,82.031,579.590
1530746658.718,-59.082,2.441,76.172,-33.203,513.672
1530746658.722,-72.754,-18.066,143.066,-43.457,427.734
1530746658.726,46.875,43.945,7.324,74.219,483.887
1530746658.730,83.008,75.684,-85.449,110.352,539.062
1530746658.734,-26.367,21.484,29.785,2.441,514.648
1530746658.738,-84.961,-20.508,147.461,-56.641,441.406
1530746658.742,13.672,30.273,48.340,47.852,453.125
1530746658.746,92.773,87.891,-83.496,125.000,571.289
1530746658.750,10.254,45.898,-8.789,39.551,583.984
1530746658.754,-89.355,-20.996,133.789,-57.129,444.824
1530746658.757,-28.809,6.348,94.238,9.277,400.391
1530746658.761,73.730,70.801,-60.059,111.816,537.598
1530746658.765,32.227,59.570,-49.316,68.359,572.754
1530746658.769,-80.078,-10.742,104.492,-41.504,500.000
1530746658.773,-54.688,-13.184,128.906,-19.043,414.062
1530746658.777,65.918,60.547,-25.391,97.656,467.773
1530746658.781,65.430,75.684,-77.637,94.727,542.480
1530746658.785,-45.898,7.812,65.430,-17.090,462.891
1530746658.789,-69.336,-21.973,143.066,-37.109,387.207
1530746658.793,46.387,39.551,12.695,76.172,469.238
1530746658.797,95.215,77.148,-85.938,121.582,551.270
1530746658.800,-11.230,25.879,20.508,18.555,506.836
1530746658.804,-84.473,-23.926,143.066,-54.688,408.203
1530746658.808,10.742,18.555,58.105,37.598,410.156
1530746658.812,94.238,75.684,-77.148,121.094,529.785
1530746658.816,20.508,47.363,-18.066,44.922,539.062
1530746658.820,-75.195,-13.672,123.535,-50.293,374.023
1530746658.824,-21.484,4.883,99.609,11.230,356.445
1530746658.828,87.891,67.871,-50.293,117.188,470.703
1530746658.832,51.270,61.035,-54.688,78.613,473.145
1530746658.836,-64.941,-3.418,93.750,-34.668,419.922
1530746658.839,-59.570,-9.766,129.883,-24.902,367.676
1530746658.843,57.617,55.664,-17.578,93.750,409.668
1530746658.847,74.707,76.172,-83.008,107.910,488.281
1530746658.851,-36.621,15.137,49.805,-7.324,415.039
1530746658.855,-77.637,-22.461,146.484,-48.828,317.383
1530746658.859,31.738,33.203,28.809,58.594,341.797
1530746658.863,91.797,79.102,-87.891,109.375,434.570
1530746658.867,-4.395,32.715,7.812,17.090,472.656
1530746658.871,-87.891,-23.438,140.625,-61.523,402.344
1530746658.875,-7.324,16.113,71.289,20.020,400.879
1530746658.879,91.309,81.055,-70.312,121.582,500.977
1530746658.882,30.273,56.152,-29.297,59.570,489.258
1530746658.886,-79.590,-14.648,116.211,-46.875,395.020
1530746658.890,-34.668,-3.906,106.934,0.000,343.262
1530746658.894,82.031,65.918,-49.316,107.910,430.664
1530746658.898,60.547,67.871,-65.918,83.984,542.969
1530746658.902,-55.176,2.930,85.449,-23.438,436.523
1530746658.906,-61.523,-16.602,133.789,-29.785,316.406
1530746658.910,57.617,47.363,-6.348,82.031,396.973
1530746658.914,83.008,76.172,-83.984,102.051,479.980
1530746658.918,-40.039,15.625,37.598,-10.742,438.965
1530746658.921,-90.820,-25.879,145.020,-59.570,336.914
1530746658.925,20.508,31.250,38.086,53.711,346.191
1530746658.929,85.938,81.055,-83.496,122.070,488.281
1530746658.933,-3.906,35.156,0.488,31.250,485.840
1530746658.937,-90.332,-25.879,138.672,-53.711,356.934
1530746658.941,-13.184,10.254,82.031,23.926,336.426
1530746658.945,83.984,74.707,-67.383,120.117,410.645
1530746658.949,28.320,52.734,-39.551,63.477,462.402
1530746658.953,-80.078,-16.602,111.328,-45.410,370.117
1530746658.957,-44.922,-13.672,118.164,-15.625,313.477
1530746658.961,69.336,58.594,-37.598,101.562,417.480
1530746658.964,53.711,65.430,-69.824,89.844,457.520
1530746658.968,-58.594,-2.930,76.172,-24.902,347.168
1530746658.972,-72.266,-24.414,139.160,-37.109,265.137
1530746658.976,39.551,39.551,1.465,78.125,340.332
1530746658.980,78.613,72.266,-85.449,112.305,450.684
1530746658.984,-27.832,9.766,30.762,10.254,445.312
1530746658.988,-92.285,-40.527,141.113,-46.875,318.848
1530746658.992,10.254,10.742,47.852,55.176,336.914
1530746658.996,93.262,67.871,-77.637,130.371,477.051
1530746659.000,13.184,28.809,-11.719,42.969,462.891
1530746659.004,-76.172,-32.715,125.977,-46.387,357.422
1530746659.007,-7.812,-1.465,90.332,20.508,331.055
1530746659.011,95.703,70.312,-61.523,123.047,395.996
1530746659.015,48.828,57.129,-52.734,78.613,441.895
1530746659.019,-66.895,-13.672,102.539,-34.668,367.188
1530746659.023,-47.363,-17.090,129.395,-14.648,278.320
1530746659.027,67.383,53.223,-25.391,103.027,356.934
1530746659.031,73.242,69.824,-79.590,105.469,459.961
1530746659.035,-43.945,3.418,58.105,-9.766,401.855
1530746659.039,-73.242,-24.414,140.137,-38.086,305.664
1530746659.043,43.945,40.039,10.254,74.707,347.168
1530746659.046,88.867,78.125,-91.309,118.164,437.500
1530746659.050,-17.578,24.414,14.648,13.184,432.129
1530746659.054,-90.820,-24.902,135.254,-56.641,320.801
1530746659.058,-0.488,18.555,52.246,34.668,306.641
1530746659.062,90.820,80.566,-83.008,117.188,428.223
1530746659.066,20.996,48.828,-26.367,43.945,465.332
1530746659.070,-82.520,-20.508,119.629,-57.617,364.258
1530746659.074,-26.855,-0.977,100.586,0.488,300.293
1530746659.078,84.961,69.336,-55.176,111.328,375.488
1530746659.082,48.828,61.523,-59.570,77.148,432.129
1530746659.086,-68.848,-10.254,96.680,-38.086,352.539
1530746659.089,-66.406,-22.461,129.395,-35.156,271.973
1530746659.093,47.852,46.875,-22.949,82.031,352.051
1530746659.097,67.871,71.777,-84.961,93.262,438.965
1530746659.101,-48.340,10.254,50.293,-15.137,380.859
1530746659.105,-90.820,-27.832,144.043,-51.270,323.242
1530746659.109,21.484,28.809,29.297,57.617,357.910
1530746659.113,84.473,76.172,-84.961,113.281,408.691
1530746659.117,-4.395,26.855,3.906,14.648,364.746
1530746659.121,-83.496,-32.227,133.301,-65.918,292.969
1530746659.125,1.953,9.277,62.012,13.672,292.480
1530746659.129,102.539,74.707,-82.031,107.910,374.023
1530746659.132,35.645,52.246,-39.062,47.363,362.793
1530746659.136,-75.684,-12.695,110.840,-62.012,279.785
1530746659.140,-30.762,-4.883,104.492,-14.160,266.602
1530746659.144,80.566,60.059,-47.363,108.398,359.863
1530746659.148,52.734,60.059,-68.359,82.031,416.504
1530746659.152,-60.547,-9.766,76.172,-32.227,365.234
1530746659.156,-65.430,-26.855,131.836,-30.273,260.254
1530746659.160,46.875,41.992,-10.254,83.496,314.941
1530746659.164,72.754,72.754,-86.426,109.375,409.668
1530746659.168,-37.598,11.230,39.551,1.953,346.680
1530746659.171,-87.891,-30.273,145.020,-52.246,237.305
1530746659.175,18.066,24.414,37.598,50.781,280.762
1530746659.179,91.309,75.684,-87.402,118.164,379.883
1530746659.183,4.883,35.156,-3.906,31.250,396.484
1530746659.187,-87.891,-26.367,128.418,-54.688,282.715
1530746659.191,-16.113,4.395,70.801,20.996,258.789
1530746659.195,89.844,72.266,-70.312,119.629,355.957
1530746659.199,38.574,53.223,-40.039,67.871,392.090
1530746659.203,-81.543,-16.113,104.980,-45.410,333.008
1530746659.207,-52.734,-9.766,113.281,-17.578,258.301
1530746659.211,80.078,64.453,-37.598,110.840,341.797
1530746659.214,69.824,73.730,-74.219,103.516,408.203
1530746659.218,-56.641,1.953,71.289,-17.578,330.078
1530746659.222,-80.566,-20.508,143.555,-39.551,267.578
1530746659.226,38.086,43.945,10.254,76.172,309.570
1530746659.230,82.520,72.754,-83.496,116.211,382.812
1530746659.234,-29.785,17.578,30.762,4.395,396.484
1530746659.238,-94.238,-27.344,146.484,-60.059,277.344
1530746659.242,3.418,17.578,54.688,36.621,247.559
1530746659.246,78.125,71.777,-79.102,110.352,390.625
1530746659.250,-2.930,39.062,-20.508,28.320,380.859
1530746659.254,-99.609,-24.414,122.559,-65.430,284.180
1530746659.257,-39.062,-3.906,91.309,5.371,260.254
1530746659.261,65.430,67.871,-63.477,104.004,326.660
1530746659.265,20.996,58.594,-59.082,53.711,372.070
1530746659.269,-93.750,-11.230,92.285,-61.035,308.105
1530746659.273,-76.660,-13.184,117.676,-41.992,223.145
1530746659.277,41.992,57.617,-36.621,70.801,272.949
1530746659.281,42.480,74.219,-89.355,67.871,357.910
1530746659.285,-70.801,8.301,48.828,-43.945,283.691
1530746659.289,-93.750,-23.438,133.789,-70.801,192.871
1530746659.293,23.926,38.574,8.789,47.852,263.184
1530746659.296,78.613,78.125,-93.262,101.562,370.117
1530746659.300,-25.391,19.531,12.207,7.324,356.934
1530746659.304,-94.727,-36.621,135.742,-62.500,265.137
1530746659.308,-3.906,9.766,53.223,25.879,274.414
1530746659.312,84.473,72.266,-82.520,112.305,373.535
1530746659.316,13.672,42.480,-26.855,39.062,388.184
1530746659.320,-87.402,-22.949,119.141,-62.988,300.293
1530746659.324,-33.691,-7.812,96.680,-10.254,244.141
1530746659.328,73.730,60.547,-59.570,94.238,314.941
1530746659.332,44.434,58.594,-66.895,65.918,381.836
1530746659.336,-69.824,-12.695,82.031,-41.992,323.730
1530746659.339,-64.453,-26.855,123.535,-36.621,256.836
1530746659.343,55.176,41.992,-19.531,79.102,314.941
1530746659.347,75.684,66.895,-85.938,95.215,398.926
1530746659.351,-39.551,2.930,45.898,-16.602,333.496
1530746659.355,-89.355,-37.109,143.066,-64.941,218.262
1530746659.359,22.949,23.438,26.367,44.922,262.207
1530746659.363,87.402,68.848,-89.355,112.793,351.074
1530746659.367,-6.836,17.578,4.883,14.648,326.660
1530746659.371,-84.961,-38.086,136.719,-66.406,185.059
1530746659.375,0.000,0.977,71.289,23.438,184.082
1530746659.378,100.098,65.918,-71.289,117.188,335.938
1530746659.382,40.039,41.504,-34.180,58.105,350.586
1530746659.386,-69.824,-24.414,112.305,-43.457,249.023
1530746659.390,-28.809,-12.695,105.957,-4.395,208.008
1530746659.394,88.379,59.082,-48.828,106.934,308.594
1530746659.398,70.801,64.453,-70.312,91.797,354.492
1530746659.402,-49.316,-2.930,78.125,-22.949,255.371
1530746659.406,-58.594,-22.949,136.719,-29.785,183.594
1530746659.410,60.059,41.016,0.488,87.891,271.484
1530746659.414,83.984,71.777,-82.031,113.770,378.418
1530746659.418,-34.180,11.719,40.527,2.441,298.340
1530746659.421,-88.867,-32.715,150.879,-54.688,183.594
1530746659.425,15.137,20.020,41.992,49.805,240.234
1530746659.429,83.984,69.336,-86.914,113.281,338.379
1530746659.433,-3.906,27.344,-6.836,21.484,316.895
1530746659.437,-91.309,-31.250,136.230,-63.477,197.754
1530746659.441,-21.484,-0.977,85.938,5.859,145.996
1530746659.445,81.055,66.406,-69.336,107.910,240.234
1530746659.449,28.809,50.781,-49.805,60.547,306.152
1530746659.453,-88.867,-18.066,105.469,-48.828,225.586
1530746659.457,-58.594,-12.695,119.629,-16.602,159.668
1530746659.461,63.965,57.129,-33.203,99.609,255.371
1530746659.464,59.570,62.988,-72.754,88.867,315.430
1530746659.468,-57.617,-1.953,66.895,-22.461,234.863
1530746659.472,-80.566,-27.344,138.672,-39.551,170.898
1530746659.476,32.715,32.715,2.930,68.359,228.027
1530746659.480,72.266,66.406,-91.309,104.980,291.992
1530746659.484,-30.762,12.207,24.414,1.465,271.973
1530746659.488,-94.727,-36.133,144.043,-63.965,203.613
1530746659.492,-0.488,12.695,49.316,30.762,206.055
1530746659.496,85.938,73.242,-89.355,107.910,274.414
1530746659.500,10.742,34.180,-20.996,30.273,303.223
1530746659.503,-86.426,-27.832,125.000,-62.500,222.168
1530746659.507,-20.508,1.953,85.449,3.418,209.473
1530746659.511,88.379,70.312,-66.406,110.352,298.340
1530746659.515,47.363,60.547,-55.664,67.383,354.492
1530746659.519,-65.918,-11.719,96.680,-41.016,283.203
1530746659.523,-55.176,-18.555,125.000,-20.996,161.621
1530746659.527,62.500,54.199,-25.879,93.750,234.863
1530746659.531,75.684,69.824,-81.055,102.539,337.891
1530746659.535,-38.574,5.859,56.641,-6.836,260.742
1530746659.539,-74.707,-22.949,147.461,-41.504,169.922
1530746659.543,35.645,36.621,20.020,69.336,216.797
1530746659.546,86.426,78.613,-94.238,118.164,282.715
1530746659.550,-10.254,29.297,15.625,21.973,276.367
1530746659.554,-81.055,-23.438,143.066,-48.828,169.434
1530746659.558,7.324,21.484,60.059,39.062,194.824
1530746659.562,99.121,79.590,-80.078,128.906,318.359
1530746659.566,31.250,52.246,-30.273,55.176,288.086
1530746659.570,-64.453,-8.789,115.723,-43.945,179.688
1530746659.574,-15.137,0.977,99.121,11.719,160.156
1530746659.578,80.078,65.918,-51.758,110.840,268.555
1530746659.582,44.922,61.523,-55.664,79.590,342.285
1530746659.586,-76.660,-15.625,97.656,-37.598,245.117
1530746659.589,-70.801,-32.715,145.020,-27.832,161.621
1530746659.593,48.340,32.715,-0.488,96.191,240.723
1530746659.597,57.617,50.293,-68.359,108.398,343.262
1530746659.601,-56.641,-20.020,69.336,0.488,291.016
1530746659.605,-104.492,-67.383,169.922,-39.551,184.082
1530746659.609,1.953,-9.277,51.270,67.383,240.234
1530746659.613,68.848,39.551,-65.918,128.418,286.133
1530746659.617,-26.855,-11.719,26.855,36.621,277.832
1530746659.621,-106.934,-67.383,158.691,-41.504,193.359
1530746659.625,-26.367,-27.344,93.750,35.645,124.512
1530746659.628,71.289,39.551,-53.223,128.418,232.422
1530746659.632,13.184,19.043,-22.949,73.730,305.176
1530746659.636,-97.168,-49.316,129.395,-33.203,100.586
1530746659.640,-58.105,-34.668,125.488,2.441,-13.184
1530746659.644,56.641,34.180,-33.203,115.234,29.297
1530746659.648,41.504,33.203,-56.641,99.121,18.066
1530746659.652,-66.406,-29.785,84.473,-15.137,-4.395
1530746659.656,-71.289,-41.992,143.555,-22.461,-20.996
1530746659.660,47.363,25.879,8.789,94.727,23.926
1530746659.664,77.148,57.129,-75.195,125.488,-4.883
1530746659.668,-30.273,2.441,44.434,19.043,-7.812
1530746659.671,-91.797,-44.434,151.855,-43.457,-3.418
1530746659.675,5.371,4.883,49.805,56.641,-41.992
1530746659.679,83.008,62.500,-76.172,132.812,22.949
1530746659.683,-4.395,23.438,0.977,41.992,-34.668
1530746659.687,-95.703,-36.133,139.160,-52.734,-55.664
1530746659.691,-19.531,-5.859,86.914,21.484,26.367
1530746659.695,84.961,62.012,-61.035,124.512,-52.246
1530746659.699,34.180,46.387,-39.062,68.848,-15.137
1530746659.703,-75.195,-23.438,105.957,-42.969,-6.836
1530746659.707,-47.363,-19.043,120.605,-10.254,-83.008
1530746659.710,71.289,53.711,-32.715,106.445,28.809
1530746659.714,65.430,60.059,-77.148,92.773,-64.941
1530746659.718,-50.293,-3.906,70.801,-19.043,-101.074
1530746659.722,-69.336,-26.855,146.973,-29.785,33.691
1530746659.726,47.852,28.809,11.230,85.449,-72.266
1530746659.730,93.750,67.383,-83.984,122.070,-21.973
1530746659.734,-11.719,18.555,31.250,15.137,-12.207
1530746659.738,-82.031,-31.250,149.414,-47.363,-119.629
1530746659.742,15.625,16.602,57.617,53.711,25.391
1530746659.746,96.680,70.312,-79.102,132.324,-80.566
1530746659.750,14.648,35.645,-12.695,52.246,-116.699
1530746659.753,-80.566,-29.297,131.836,-42.969,42.480
1530746659.757,-14.648,-6.348,95.703,25.879,-61.035
1530746659.761,96.680,64.453,-53.711,135.742,-23.926
1530746659.765,53.223,52.246,-50.781,91.797,-20.508
1530746659.769,-63.477,-15.137,100.098,-18.555,-116.699
1530746659.773,-43.457,-18.066,131.836,0.977,22.461
1530746659.777,71.289,52.734,-21.973,114.258,-72.754
1530746659.781,76.660,68.848,-83.496,113.281,-99.609
1530746659.785,-34.668,1.953,54.688,-1.465,36.621
1530746659.789,-71.289,-34.668,147.461,-35.645,-72.754
1530746659.793,41.016,26.855,21.973,74.219,-21.484
1530746659.796,96.191,75.684,-91.797,127.441,-44.434
1530746659.800,1.465,26.855,10.742,33.203,-130.371
1530746659.804,-72.266,-25.879,140.625,-44.922,34.180
1530746659.808,10.742,12.695,58.105,36.133,-93.750
1530746659.812,102.539,70.801,-82.520,122.559,-95.703
1530746659.816,32.227,40.527,-32.227,49.316,32.227
1530746659.820,-72.754,-23.926,116.699,-50.781,-100.586
1530746659.824,-23.926,-5.371,103.027,7.812,-13.184
1530746659.828,89.844,67.383,-53.223,116.211,-41.504
1530746659.832,63.477,63.965,-67.871,86.914,-128.418
1530746659.835,-53.711,-4.395,81.055,-22.949,42.969
1530746659.839,-55.664,-17.578,129.395,-25.391,-80.078
1530746659.843,62.500,47.852,-14.648,93.750,-100.586
1530746659.847,83.008,74.707,-84.961,115.723,27.832
1530746659.851,-34.180,10.254,43.945,-1.465,-100.098
1530746659.855,-78.613,-30.273,141.113,-44.922,-9.766
1530746659.859,27.832,26.855,30.273,66.895,-39.062
1530746659.863,89.355,75.684,-87.402,124.512,-141.113
1530746659.867,-4.395,28.320,1.465,24.414,35.645
1530746659.871,-91.797,-28.320,133.789,-55.664,-89.355
1530746659.875,-12.695,8.789,70.801,25.391,-99.121
1530746659.878,86.426,71.289,-71.777,117.188,20.020
1530746659.882,28.809,49.316,-38.574,58.594,-94.238
1530746659.886,-79.102,-17.578,109.863,-49.805,3.418
1530746659.890,-43.945,-10.742,107.422,-11.719,-52.734
1530746659.894,72.754,60.547,-45.410,105.469,-137.695
1530746659.898,56.152,63.965,-73.730,83.984,32.715
1530746659.902,-63.477,-7.812,70.801,-29.785,-79.102
1530746659.906,-72.754,-24.902,133.789,-38.086,-74.707
1530746659.910,44.434,39.551,-6.348,70.312,17.090
1530746659.914,80.566,70.312,-93.750,102.539,-89.844
1530746659.918,-23.926,18.555,27.344,-1.465,10.254
1530746659.921,-83.008,-29.785,136.719,-53.711,-80.566
1530746659.925,20.996,19.043,36.133,53.223,-154.297
1530746659.929,98.145,75.195,-89.355,123.047,40.039
1530746659.933,7.324,33.691,-11.230,37.598,-95.215
1530746659.937,-83.008,-22.949,134.277,-49.805,-68.848
1530746659.941,-7.812,5.859,85.449,21.484,16.602
1530746659.945,93.750,69.824,-69.336,117.188,-117.188
1530746659.949,42.480,54.199,-48.828,62.500,10.254
1530746659.953,-70.801,-17.578,98.145,-47.363,-80.566
1530746659.957,-38.574,-13.672,114.258,-15.625,-148.926
1530746659.960,80.078,57.129,-30.273,105.469,48.828
1530746659.964,72.754,64.941,-74.707,102.539,-78.613
1530746659.968,-43.457,-1.953,63.477,-11.230,-69.336
1530746659.972,-65.918,-29.297,137.695,-38.086,13.672
1530746659.976,47.852,33.691,5.371,74.707,-111.816
1530746659.980,92.773,72.754,-92.285,120.117,6.348
1530746659.984,-13.184,17.578,14.160,17.578,-66.895
1530746659.988,-83.984,-32.715,130.859,-52.246,-133.789
1530746659.992,11.230,14.648,41.504,38.574,41.016
1530746659.996,98.145,72.754,-89.355,125.977,-90.820
1530746660.000,22.461,41.504,-23.926,49.805,-64.453
1530746660.003,-72.266,-22.461,120.605,-49.805,-8.789
1530746660.007,-8.301,-2.930,89.844,21.484,-125.488
1530746660.011,101.562,64.453,-62.012,128.906,18.555
1530746660.015,59.082,54.199,-58.594,82.520,-80.078
1530746660.019,-57.617,-17.090,89.844,-30.273,-125.977
1530746660.023,-44.922,-23.926,120.605,-16.602,37.109
1530746660.027,71.777,44.922,-28.320,99.609,-87.891
1530746660.031,81.543,65.430,-87.891,104.980,-40.527
1530746660.035,-37.598,4.883,48.340,-7.324,-12.207
1530746660.039,-74.707,-31.250,140.137,-39.062,-122.070
1530746660.042,36.621,25.391,17.578,72.266,27.832
1530746660.046,96.191,77.148,-96.191,119.141,-84.961
1530746660.050,14.648,30.762,3.906,31.738,-137.695
1530746660.054,-63.477,-29.785,134.766,-34.180,39.062
1530746660.058,10.742,6.836,64.453,46.387,-95.215
1530746660.062,97.168,65.430,-72.754,133.301,-37.598
1530746660.066,35.645,36.133,-24.902,71.777,-17.090
1530746660.070,-72.266,-31.250,122.559,-29.785,-145.508
1530746660.074,-41.992,-25.391,111.328,12.695,27.344
1530746660.078,68.359,36.621,-40.039,119.141,-96.680
1530746660.082,46.387,38.574,-53.711,90.332,-140.625
1530746660.085,-66.895,-27.832,96.191,-19.531,46.387
1530746660.089,-68.359,-41.992,144.531,-20.996,-76.172
1530746660.093,55.176,23.926,-0.488,95.703,-33.203
1530746660.097,83.496,49.805,-79.590,112.793,-24.902
1530746660.101,-29.785,-8.301,46.875,-1.953,-132.812
1530746660.105,-75.684,-45.898,145.020,-41.504,24.414
1530746660.109,33.203,10.254,28.320,68.848,-84.961
1530746660.113,98.145,61.035,-84.961,133.789,-116.211
1530746660.117,9.766,20.020,8.789,50.781,39.062
1530746660.121,-77.148,-41.504,143.066,-32.715,-85.449
1530746660.125,-1.953,-8.789,79.590,40.527,-28.320
1530746660.128,98.145,61.035,-67.383,141.602,-48.340
1530746660.132,39.062,41.992,-30.273,83.496,-145.020
1530746660.136,-71.289,-25.391,117.676,-23.926,35.156
1530746660.140,-32.715,-12.695,112.793,11.719,-104.980
1530746660.144,84.473,58.105,-38.086,122.559,-109.863
1530746660.148,64.941,59.082,-68.359,103.027,34.180
1530746660.152,-53.711,-11.719,75.195,-16.602,-108.887
1530746660.156,-68.359,-34.180,146.484,-26.367,-16.602
1530746660.160,48.828,31.738,8.789,92.285,-46.875
1530746660.164,83.496,64.941,-80.566,123.047,-143.066
1530746660.167,-25.391,9.766,39.062,17.090,44.434
1530746660.171,-83.008,-38.086,147.461,-46.387,-87.402
1530746660.175,19.043,11.719,46.875,53.711,-112.305
1530746660.179,96.191,67.383,-79.102,130.859,29.297
1530746660.183,15.137,26.855,-5.859,43.945,-110.352
1530746660.187,-75.195,-33.203,131.836,-46.875,-13.184
1530746660.191,-11.230,-5.859,83.984,22.461,-48.340
1530746660.195,90.332,62.988,-64.941,119.629,-160.645
1530746660.199,44.434,57.129,-48.340,66.895,38.086
1530746660.203,-69.824,-13.672,100.586,-40.039,-98.145
1530746660.207,-47.852,-18.066,120.117,-10.254,-109.375
1530746660.210,72.266,52.734,-31.738,102.539,19.531
1530746660.214,70.312,63.965,-76.660,97.656,-107.422
1530746660.218,-50.781,-1.465,64.941,-14.648,0.000
1530746660.222,-79.590,-27.344,141.602,-39.062,-61.035
1530746660.226,38.086,36.621,8.301,75.684,-153.809
1530746660.230,85.449,77.148,-93.262,119.629,35.156
1530746660.234,-14.648,19.531,20.996,19.531,-88.867
1530746660.238,-83.496,-36.621,142.090,-44.922,-85.938
1530746660.242,10.254,11.719,53.223,47.852,16.602
1530746660.246,98.633,76.660,-81.055,129.883,-104.004
1530746660.250,27.832,45.898,-20.020,52.734,5.371
1530746660.253,-73.242,-20.508,123.047,-44.922,-82.520
1530746660.257,-17.090,-1.465,93.750,17.090,-165.527
1530746660.261,95.703,65.918,-59.570,121.094,41.016
1530746660.265,63.965,58.594,-61.035,87.402,-104.980
1530746660.269,-45.898,-6.836,88.379,-17.578,-79.102
1530746660.273,-37.109,-17.578,124.023,-7.324,14.160
1530746660.277,76.660,44.434,-23.926,107.422,-133.789
1530746660.281,84.473,63.477,-83.496,118.164,7.324
1530746660.285,-28.320,-2.930,50.293,1.953,-83.984
1530746660.289,-66.895,-36.133,138.184,-38.574,-159.180
1530746660.292,45.410,28.809,18.066,77.148,49.805
1530746660.296,106.445,73.730,-89.355,130.859,-90.332
1530746660.300,5.371,24.902,10.742,21.973,-78.125
1530746660.304,-78.125,-34.668,135.742,-58.105,12.695
1530746660.308,6.836,2.930,61.035,27.832,-124.512
1530746660.312,103.027,71.777,-77.637,115.234,4.883
1530746660.316,32.715,41.016,-31.738,47.852,-74.707
1530746660.320,-77.637,-29.297,116.211,-56.152,-148.438
1530746660.324,-26.367,-11.230,102.051,-6.836,42.480
1530746660.328,89.844,62.500,-50.781,110.352,-102.539
1530746660.332,69.336,65.430,-61.523,83.496,-72.754
1530746660.335,-49.316,-1.953,83.984,-35.645,-8.301
1530746660.339,-58.105,-20.020,129.395,-37.598,-136.719
1530746660.343,60.547,43.945,-14.160,82.520,17.578
1530746660.347,83.008,68.359,-88.867,106.445,-88.867
1530746660.351,-29.785,6.348,38.574,-10.742,-139.648
1530746660.355,-80.078,-32.227,142.578,-58.105,39.062
1530746660.359,28.320,25.879,31.738,56.641,-100.098
1530746660.363,101.074,77.637,-89.355,118.164,-49.805
1530746660.367,6.836,29.785,-1.465,24.902,-12.207
1530746660.371,-79.590,-27.344,134.766,-56.152,-131.836
1530746660.375,0.977,8.789,78.125,23.926,27.344
1530746660.378,99.121,70.801,-71.777,120.605,-92.773
1530746660.382,40.039,49.805,-43.945,62.012,-150.879
1530746660.386,-67.383,-18.066,109.863,-44.434,40.527
1530746660.390,-30.273,-14.160,114.258,-6.836,-105.957
1530746660.394,83.008,57.129,-38.574,106.934,-45.410
1530746660.398,65.430,66.895,-73.730,85.938,-17.578
1530746660.402,-50.781,-0.488,70.312,-28.809,-154.785
1530746660.406,-59.570,-18.066,139.160,-34.180,27.832
1530746660.410,54.199,45.410,1.465,82.031,-104.004
1530746660.414,83.008,72.266,-82.520,115.723,-153.320
1530746660.417,-27.832,15.137,36.621,10.254,48.828
1530746660.421,-84.961,-31.250,145.020,-46.387,-85.938
1530746660.425,21.973,19.043,46.387,55.664,-40.039
1530746660.429,98.145,75.684,-81.543,128.906,-25.879
1530746660.433,10.742,38.086,-9.766,47.363,-142.578
1530746660.437,-84.961,-25.391,130.371,-49.316,25.391
1530746660.441,-14.160,2.441,89.844,22.949,-94.727
1530746660.445,97.168,73.730,-62.500,134.766,-129.883
1530746660.449,52.734,60.547,-46.875,85.938,41.016
1530746660.453,-62.500,-11.719,106.934,-25.879,-96.191
1530746660.457,-38.086,-11.719,127.930,-3.906,-35.156
1530746660.460,85.449,63.477,-24.902,113.281,-49.805
1530746660.464,83.496,83.496,-70.312,112.305,-156.738
1530746660.468,-40.527,13.184,74.219,-3.906,35.156
1530746660.472,-67.383,-24.414,151.855,-27.832,-112.305
1530746660.476,54.199,41.016,19.531,93.750,-121.582
1530746660.480,97.168,80.566,-82.520,135.742,36.133
1530746660.484,-10.254,25.391,29.785,26.367,-115.234
1530746660.488,-75.195,-22.461,152.344,-39.062,-20.020
1530746660.492,18.555,22.949,63.477,49.805,-50.781
1530746660.496,100.586,80.078,-75.195,134.277,-155.273
1530746660.499,22.461,47.363,-16.113,60.059,44.434
1530746660.503,-80.078,-17.578,130.859,-45.410,-92.773
1530746660.507,-16.602,4.883,104.492,20.508,-121.582
1530746660.511,95.215,76.660,-51.758,128.906,30.273
1530746660.515,57.129,70.801,-52.734,85.938,-118.164
1530746660.519,-52.734,1.465,99.121,-22.949,-14.648
1530746660.523,-43.457,-9.277,134.277,-11.230,-55.176
1530746660.527,74.219,62.012,-16.113,101.074,-176.758
1530746660.531,86.914,82.031,-77.637,111.816,39.551
1530746660.535,-30.762,14.160,56.641,-1.465,-103.516
1530746660.539,-73.242,-23.926,146.484,-38.086,-117.188
1530746660.542,38.086,39.062,23.926,68.359,19.043
1530746660.546,97.168,87.891,-84.961,119.141,-117.188
1530746660.550,-1.465,36.133,12.207,24.414,-3.418
1530746660.554,-81.543,-20.020,140.137,-53.223,-64.941
1530746660.558,5.859,20.996,68.359,33.691,-163.086
1530746660.562,104.004,83.984,-77.148,130.371,36.133
1530746660.566,40.527,58.105,-32.227,67.871,-95.215
1530746660.570,-60.547,-9.277,118.652,-34.180,-93.262
1530746660.574,-13.672,0.977,108.887,11.230,15.625
1530746660.578,103.516,70.312,-44.922,123.047,-113.770
1530746660.582,82.031,69.336,-62.012,101.074,2.930
1530746660.585,-38.086,1.953,87.891,-20.508,-84.961
1530746660.589,-45.410,-14.648,137.695,-23.926,-173.828
1530746660.593,70.801,51.758,-9.277,94.727,42.480
1530746660.597,94.727,78.125,-83.496,115.234,-112.793
1530746660.601,-18.066,18.555,44.922,7.324,-87.402
1530746660.605,-70.312,-20.020,143.555,-47.363,12.695
1530746660.609,34.668,33.203,34.668,56.641,-143.066
1530746660.613,102.539,82.031,-85.449,125.977,5.859
1530746660.617,6.348,34.668,-4.395,30.273,-86.914
1530746660.621,-78.613,-24.902,133.789,-56.152,-167.480
1530746660.624,2.441,10.254,76.660,25.879,50.781
1530746660.628,102.539,79.102,-73.242,124.023,-97.656
1530746660.632,43.945,59.570,-35.645,68.359,-85.938
1530746660.636,-70.312,-12.207,115.234,-36.133,11.719
1530746660.640,-37.109,-5.371,115.234,-0.977,-131.836
1530746660.644,82.520,68.359,-39.062,115.723,3.906
1530746660.648,71.289,71.777,-73.242,102.051,-78.613
1530746660.652,-46.387,1.953,74.219,-17.090,-156.738
1530746660.656,-63.965,-20.020,141.113,-32.715,43.457
1530746660.660,50.781,46.387,3.906,83.496,-111.816
1530746660.664,89.844,82.031,-84.961,117.676,-79.590
1530746660.667,-17.090,22.949,32.227,9.277,-8.789
1530746660.671,-80.078,-27.832,145.508,-53.223,-144.531
1530746660.675,20.996,22.949,50.781,52.246,17.090
1530746660.679,103.516,80.566,-83.496,128.906,-93.262
1530746660.683,17.578,39.062,-15.137,44.434,-148.926
1530746660.687,-81.543,-23.926,130.371,-47.363,40.039
1530746660.691,-19.531,1.465,89.844,16.113,-104.980
1530746660.695,86.426,71.289,-61.035,118.652,-55.176
1530746660.699,41.504,59.082,-50.781,71.777,-12.695
1530746660.703,-72.266,-11.719,101.074,-41.992,-139.160
1530746660.707,-44.434,-12.695,124.023,-17.578,26.367
1530746660.710,77.148,57.129,-31.738,103.027,-97.656
1530746660.714,77.148,71.777,-81.055,103.516,-161.133
1530746660.718,-42.969,4.395,60.547,-11.719,41.504
1530746660.722,-70.801,-23.926,140.625,-40.039,-113.281
1530746660.726,45.410,40.039,10.254,76.660,-50.293
1530746660.730,94.727,80.566,-91.797,128.906,-19.043
1530746660.734,-10.254,25.879,14.648,26.855,-162.109
1530746660.738,-82.031,-25.879,140.625,-46.387,28.809
1530746660.742,13.184,16.113,59.082,44.922,-110.840
1530746660.746,94.727,73.242,-81.055,129.883,-163.086
1530746660.749,14.648,41.016,-25.879,51.270,49.805
1530746660.753,-85.449,-20.508,120.605,-48.828,-93.262
1530746660.757,-25.879,1.953,95.215,12.695,-44.434
1530746660.761,85.449,66.406,-58.105,119.141,-27.832
1530746660.765,50.781,61.035,-65.918,80.078,-151.855
1530746660.769,-60.547,-5.371,83.984,-31.738,25.391
1530746660.773,-50.293,-20.020,128.906,-24.902,-101.074
1530746660.777,71.777,48.828,-17.090,91.797,-140.137
1530746660.781,90.820,77.148,-83.496,110.352,42.480
1530746660.785,-21.973,13.184,49.316,1.465,-103.516
1530746660.789,-61.035,-23.926,142.090,-39.062,-39.551
1530746660.792,48.828,33.691,23.926,70.801,-50.781
1530746660.796,110.840,80.566,-87.891,135.254,-165.039
1530746660.800,15.625,31.738,10.742,42.480,34.668
1530746660.804,-73.242,-29.785,139.160,-43.457,-116.699
1530746660.808,8.301,7.324,62.012,39.551,-129.883
1530746660.812,107.910,73.242,-83.984,132.812,37.109
1530746660.816,41.504,46.387,-36.621,65.430,-119.629
1530746660.820,-70.801,-19.043,115.234,-41.016,-22.461
1530746660.824,-28.320,-4.395,105.957,5.371,-52.246
1530746660.828,83.984,61.523,-48.340,114.258,-164.062
1530746660.831,56.641,65.430,-68.359,83.984,43.457
1530746660.835,-61.035,-0.977,79.590,-28.320,-96.680
1530746660.839,-66.406,-23.926,132.324,-28.320,-128.418
1530746660.843,52.246,42.480,-9.277,83.496,31.738
1530746660.847,78.613,73.242,-81.543,106.445,-123.047
1530746660.851,-28.809,14.160,38.574,4.395,-18.066
1530746660.855,-81.055,-29.297,132.324,-51.270,-58.105
1530746660.859,24.414,24.902,27.832,50.293,-184.570
1530746660.863,103.516,82.031,-88.867,125.488,40.039
1530746660.867,10.254,38.086,-5.859,33.203,-107.910
1530746660.871,-81.055,-26.367,132.812,-51.270,-122.559
1530746660.874,-0.488,7.324,78.125,28.809,20.020
1530746660.878,102.051,75.195,-70.801,131.836,-122.559
1530746660.882,50.781,55.664,-38.574,86.914,-6.348
1530746660.886,-63.477,-15.625,110.352,-28.809,-64.941
1530746660.890,-33.691,-15.625,116.211,-0.488,-166.992
1530746660.894,85.449,55.176,-39.062,119.629,36.621
1530746660.898,72.754,64.453,-78.125,105.469,-98.633
1530746660.902,-44.434,-2.930,66.406,-10.742,-98.633
1530746660.906,-58.105,-24.902,136.719,-23.438,15.137
1530746660.910,58.105,39.062,5.371,94.238,-120.605
1530746660.914,97.168,78.125,-84.473,128.418,0.000
1530746660.917,-12.207,22.461,23.438,17.578,-85.449
1530746660.921,-77.637,-30.273,135.742,-46.387,-177.734
1530746660.925,20.996,17.090,43.457,54.688,42.969
1530746660.929,98.633,74.219,-89.844,133.301,-118.164
1530746660.933,17.090,37.598,-18.555,49.316,-92.285
1530746660.937,-79.590,-28.320,126.953,-43.457,12.207
1530746660.941,-18.066,-6.348,84.961,20.996,-148.926
1530746660.945,91.797,64.941,-68.848,124.512,3.418
1530746660.949,50.781,56.152,-60.059,78.613,-87.402
1530746660.953,-67.383,-13.184,94.238,-34.180,-170.410
1530746660.956,-49.805,-15.137,121.582,-16.602,51.270
1530746660.960,71.777,55.664,-31.250,99.121,-104.492
1530746660.964,77.637,71.289,-82.520,100.586,-91.309
1530746660.968,-35.645,4.883,57.129,-12.207,10.742
1530746660.972,-68.848,-25.391,137.695,-36.621,-138.184
1530746660.976,43.457,34.180,7.324,73.730,3.418
1530746660.980,96.680,72.266,-96.680,121.582,-81.543
1530746660.984,-0.977,23.438,12.695,25.879,-163.574
1530746660.988,-69.824,-26.855,138.672,-46.387,43.945
1530746660.992,19.531,13.672,49.805,42.969,-118.164
1530746660.996,106.934,77.637,-90.332,129.883,-85.449
1530746660.999,33.203,49.805,-28.809,57.129,-7.324
1530746661.003,-69.336,-19.531,117.676,-46.387,-148.438
1530746661.007,-14.648,-2.441,93.262,5.859,15.137
1530746661.011,97.168,68.848,-60.547,108.887,-97.656
1530746661.015,57.617,64.453,-66.406,75.195,-156.250
1530746661.019,-61.035,-4.395,84.473,-33.691,41.016
1530746661.023,-47.852,-12.695,125.488,-23.438,-109.375
1530746661.027,73.242,54.688,-20.508,97.656,-59.082
1530746661.031,86.914,73.242,-84.961,109.375,-12.207
1530746661.035,-29.297,9.766,46.875,-3.906,-144.043
1530746661.039,-76.172,-29.297,139.160,-45.898,25.391
1530746661.042,31.738,23.438,22.949,57.617,-99.609
1530746661.046,99.121,72.754,-89.844,122.559,-166.504
1530746661.050,5.371,28.809,0.488,32.227,42.480
1530746661.054,-76.172,-27.344,132.812,-51.270,-117.188
1530746661.058,10.742,12.207,67.871,33.691,-55.176
1530746661.062,108.398,78.613,-76.660,129.883,-18.555
1530746661.066,41.016,54.199,-36.621,59.570,-166.016
1530746661.070,-70.801,-17.578,112.793,-42.480,28.809
1530746661.074,-28.809,-8.789,106.445,7.324,-114.258
1530746661.078,92.285,64.941,-45.898,122.070,-168.945
1530746661.081,73.242,68.848,-66.895,104.004,49.805
1530746661.085,-46.387,-0.977,78.613,-9.766,-99.609
1530746661.089,-52.246,-18.066,132.324,-11.719,-48.340
1530746661.093,65.430,46.875,-8.301,103.516,-26.855
1530746661.097,96.680,75.684,-85.938,127.930,-154.785
1530746661.101,-10.254,16.602,39.062,19.043,24.902
1530746661.105,-64.453,-29.297,142.578,-36.621,-103.027
1530746661.109,39.551,22.949,35.156,61.035,-145.996
1530746661.113,109.863,77.148,-89.844,124.023,42.969
1530746661.117,20.020,33.691,-10.254,33.691,-106.445
1530746661.121,-64.453,-25.391,130.859,-56.152,-41.992
1530746661.124,8.301,8.789,80.078,23.926,-51.270
1530746661.128,109.375,72.754,-68.848,127.441,-169.434
1530746661.132,59.082,53.711,-45.898,73.730,34.180
1530746661.136,-57.617,-16.113,100.586,-35.156,-119.141
1530746661.140,-30.273,-13.672,112.793,-4.395,-134.766
1530746661.144,88.379,61.035,-36.621,111.328,37.598
1530746661.148,76.172,71.777,-71.777,103.516,-121.094
1530746661.152,-42.969,-2.930,71.289,-10.254,-23.438
1530746661.156,-62.012,-30.762,138.672,-31.250,-53.223
1530746661.160,52.246,38.574,2.930,84.473,-167.969
1530746661.163,95.703,70.801,-89.355,122.070,43.457
1530746661.167,-9.277,14.160,26.367,15.137,-97.656
1530746661.171,-73.242,-28.320,142.578,-48.340,-130.859
1530746661.175,27.832,20.020,48.340,53.223,32.227
1530746661.179,105.469,76.660,-84.961,139.160,-125.000
1530746661.183,22.461,40.527,-16.602,56.152,-20.020
1530746661.187,-72.266,-24.902,125.977,-41.504,-58.105
1530746661.191,-4.883,0.000,88.379,25.879,-187.500
1530746661.195,103.027,67.871,-62.500,129.883,40.039
1530746661.199,54.199,55.176,-56.152,81.055,-111.328
1530746661.203,-59.082,-15.137,96.680,-30.273,-127.930
1530746661.206,-41.992,-18.066,126.465,-11.230,20.508
1530746661.210,69.824,49.805,-26.367,104.004,-125.000
1530746661.214,74.707,65.430,-78.613,105.469,-8.301
1530746661.218,-40.039,4.395,58.105,-9.277,-66.406
1530746661.222,-71.777,-29.297,139.160,-36.621,-170.898
1530746661.226,41.016,30.762,17.578,74.219,36.621
1530746661.230,90.332,72.266,-85.938,119.629,-102.051
1530746661.234,-9.277,20.508,14.160,18.555,-103.027
1530746661.238,-86.914,-34.668,134.277,-59.570,15.137
1530746661.242,0.000,9.277,55.176,34.668,-124.512
1530746661.246,93.262,72.754,-77.148,126.953,-1.953
1530746661.249,24.902,39.062,-27.344,52.246,-85.449
1530746661.253,-73.730,-28.809,117.676,-44.922,-180.664
1530746661.257,-20.020,-9.277,98.633,9.766,42.969
1530746661.261,93.262,61.523,-54.199,115.723,-120.605
1530746661.265,66.895,61.035,-62.012,92.773,-96.680
1530746661.269,-49.805,-8.301,85.449,-19.531,13.672
1530746661.273,-45.898,-24.902,128.906,-19.043,-149.902
1530746661.277,79.590,48.828,-16.602,100.586,1.953
1530746661.281,99.609,75.684,-84.961,116.211,-86.914
1530746661.285,-16.602,9.766,43.945,4.395,-172.363
1530746661.288,-64.941,-29.785,143.066,-37.109,51.758
1530746661.292,41.504,27.344,30.273,70.312,-107.910
1530746661.296,105.469,75.195,-84.961,128.418,-95.703
1530746661.300,7.812,24.414,2.930,31.738,12.695
1530746661.304,-73.730,-33.691,133.301,-46.387,-139.160
1530746661.308,13.184,6.348,73.242,36.133,2.441
1530746661.312,103.027,67.871,-74.219,131.836,-83.496
1530746661.316,41.504,44.434,-39.062,72.266,-168.945
1530746661.320,-63.477,-26.367,113.770,-34.180,44.434
1530746661.324,-22.949,-20.020,107.422,5.371,-122.559
1530746661.328,92.285,52.246,-44.922,119.141,-89.844
1530746661.331,69.824,54.199,-67.383,98.633,-5.859
1530746661.335,-47.363,-14.648,76.660,-19.531,-149.414
1530746661.339,-50.781,-29.297,135.254,-22.461,15.625
1530746661.343,67.871,38.086,-5.371,93.262,-98.633
1530746661.347,92.773,64.453,-86.914,113.770,-161.133
1530746661.351,-17.578,2.930,34.668,2.441,41.504
1530746661.355,-76.660,-36.133,140.137,-57.129,-112.305
1530746661.359,20.508,19.043,36.133,44.434,-63.477
1530746661.363,89.355,64.941,-88.379,118.164,-11.719
1530746661.367,6.836,22.949,-14.648,34.180,-145.020
1530746661.371,-82.520,-35.645,124.023,-52.246,25.391
1530746661.374,-11.230,-5.859,81.055,21.484,-103.027
1530746661.378,96.191,61.523,-63.965,122.559,-172.363
1530746661.382,41.016,44.922,-41.016,69.824,42.969
1530746661.386,-78.125,-25.879,109.863,-41.504,-119.629
1530746661.390,-46.387,-20.508,120.117,-13.184,-57.617
1530746661.394,75.684,53.223,-36.621,104.492,-18.555
1530746661.398,71.777,66.406,-72.754,97.656,-169.434
1530746661.402,-41.016,0.000,73.242,-17.578,28.809
1530746661.406,-64.941,-27.344,138.672,-36.133,-117.188
1530746661.410,55.176,37.598,3.418,81.543,-175.293
1530746661.413,102.539,71.777,-88.379,122.559,51.270
1530746661.417,-8.789,12.695,24.902,15.137,-101.562
1530746661.421,-81.055,-35.156,145.996,-49.316,-51.270
1530746661.425,12.695,12.695,53.223,47.363,-26.367
1530746661.429,94.727,69.824,-82.520,122.070,-159.180
1530746661.433,10.254,34.180,-18.066,39.062,24.414
1530746661.437,-92.773,-32.227,125.488,-52.246,-103.516
1530746661.441,-25.391,-7.812,93.750,16.113,-148.926
1530746661.445,81.055,62.988,-60.059,117.188,43.457
1530746661.449,39.062,52.734,-59.082,74.707,-108.398
1530746661.453,-67.871,-15.625,93.750,-31.738,-43.945
1530746661.456,-46.875,-20.508,126.953,-16.113,-50.781
1530746661.460,75.684,49.805,-21.484,104.492,-173.340
1530746661.464,84.961,69.824,-77.637,110.840,33.203
1530746661.468,-31.250,5.371,60.547,-4.883,-119.141
1530746661.472,-66.895,-24.902,143.066,-33.691,-137.695
1530746661.476,40.039,34.668,17.578,73.730,38.086
1530746661.480,98.145,76.660,-88.379,124.023,-122.559
1530746661.484,2.930,23.926,17.090,29.785,-26.367
1530746661.488,-69.824,-34.668,150.391,-44.922,-52.734
1530746661.492,18.555,13.184,66.895,38.086,-171.875
1530746661.495,100.586,83.496,-83.008,115.234,42.480
1530746661.499,31.738,53.223,-33.691,43.457,-100.098
1530746661.503,-63.965,-13.672,117.188,-48.828,-135.742
1530746661.507,-11.230,5.859,104.004,9.277,32.715
1530746661.511,102.539,78.125,-48.828,123.047,-126.465
1530746661.515,73.730,79.590,-62.012,92.773,-21.973
1530746661.519,-48.828,7.812,84.961,-23.438,-58.594
1530746661.523,-50.781,-11.230,132.324,-17.578,-189.453
1530746661.527,67.871,58.105,-15.137,102.051,40.039
1530746661.531,90.332,82.520,-88.379,119.141,-111.816
1530746661.535,-16.113,20.508,44.922,5.859,-129.395
1530746661.538,-58.105,-15.625,143.066,-38.086,20.996
1530746661.542,53.223,42.480,26.367,66.895,-128.906
1530746661.546,119.629,90.332,-93.262,121.582,-11.230
1530746661.550,20.996,41.992,-5.371,28.320,-65.430
1530746661.554,-64.453,-18.066,131.836,-51.270,-172.363
1530746661.558,16.113,20.020,68.848,30.762,36.621
1530746661.562,113.770,84.473,-77.637,127.441,-103.516
1530746661.566,48.828,54.688,-40.527,64.941,-105.957
1530746661.570,-64.453,-26.367,110.352,-46.875,16.602
1530746661.574,-23.438,-29.297,106.934,-5.859,-125.488
1530746661.578,92.773,36.621,-51.270,107.422,-4.395
1530746661.581,68.359,34.180,-78.613,83.008,-84.473
1530746661.585,-55.664,-42.480,71.289,-33.203,-182.617
1530746661.589,-63.965,-62.988,133.301,-42.969,42.969
1530746661.593,54.199,-1.953,-6.836,73.242,-123.047
1530746661.597,88.867,26.855,-88.379,107.910,-100.586
1530746661.601,-19.531,-33.691,29.785,3.418,14.648
1530746661.605,-74.219,-82.520,138.184,-49.316,-150.391
1530746661.609,29.297,-31.738,40.527,58.594,0.977
1530746661.613,100.586,23.438,-86.426,130.859,-87.402
1530746661.617,16.113,-16.113,-4.883,45.898,-174.805
1530746661.620,-74.219,-70.801,136.719,-41.016,51.758
1530746661.624,-3.906,-31.738,83.008,28.320,-111.328
1530746661.628,103.516,43.457,-69.824,128.906,-99.121
1530746661.632,50.293,33.203,-51.270,74.707,13.672
1530746661.636,-64.941,-35.645,101.562,-38.086,-140.625
1530746661.640,-36.133,-28.809,115.723,-9.277,1.465
1530746661.644,84.473,49.805,-38.574,101.074,-83.984
