timestamps,TP9,AF7,AF8,TP10,Right AUX
1530597920.381,-15.137,7.324,57.129,27.344,-619.629
1530597920.385,102.051,67.871,-59.082,145.996,-45.898
1530597920.389,45.410,41.016,-11.230,91.797,722.656
1530597920.393,-74.707,-14.648,125.000,-26.855,316.406
1530597920.396,-45.898,-4.395,109.375,-0.977,-293.945
1530597920.400,83.984,41.504,-41.504,130.859,552.246
1530597920.404,79.102,41.016,-44.434,121.094,-936.523
1530597920.408,-50.293,-5.371,88.867,-13.672,420.898
1530597920.412,-79.102,-14.160,116.699,-40.527,-347.656
1530597920.416,56.152,44.434,-17.090,99.121,-111.328
1530597920.420,108.398,66.895,-71.777,144.043,298.340
1530597920.424,-10.254,12.207,41.016,15.137,7.324
1530597920.428,-76.660,-16.602,128.418,-44.434,-177.246
1530597920.432,23.926,29.297,28.320,62.500,-128.906
1530597920.436,103.027,60.547,-70.312,129.883,244.141
1530597920.439,17.578,18.555,14.160,43.457,12.695
1530597920.443,-90.820,-20.508,142.578,-49.805,-334.961
1530597920.447,-25.879,14.160,75.195,28.320,464.355
1530597920.451,94.238,62.012,-70.801,137.695,978.027
1530597920.455,48.828,38.574,-28.809,75.195,222.168
1530597920.459,-74.707,-9.277,112.793,-45.410,-453.125
1530597920.463,-48.828,-0.977,104.980,-11.230,6.348
1530597920.467,80.566,54.199,-38.574,124.023,486.328
1530597920.471,83.984,59.082,-45.410,112.793,-96.680
1530597920.475,-42.969,-4.395,84.473,-17.090,-381.348
1530597920.478,-75.195,-22.461,126.465,-33.203,308.105
1530597920.482,54.199,48.828,2.930,93.262,378.418
1530597920.486,105.469,65.918,-61.523,126.465,-83.008
1530597920.490,-1.465,10.254,41.504,21.973,-43.945
1530597920.494,-77.637,-12.695,138.672,-37.598,574.219
1530597920.498,22.461,26.367,46.387,62.988,708.008
1530597920.502,121.094,59.082,-65.430,138.672,353.516
1530597920.506,33.203,28.809,7.812,55.664,453.613
1530597920.510,-84.961,-20.020,128.418,-41.992,854.492
1530597920.514,-23.438,1.465,73.730,11.230,114.746
1530597920.518,105.469,56.641,-58.105,124.023,-187.500
1530597920.521,71.777,37.598,-24.414,94.238,182.617
1530597920.525,-60.547,-16.602,116.699,-23.926,52.246
1530597920.529,-52.734,-7.812,125.000,-14.160,-193.359
1530597920.533,84.961,46.875,-40.527,115.723,-145.020
1530597920.537,100.098,52.734,-71.289,118.652,-72.266
1530597920.541,-35.645,8.301,67.383,-0.488,528.809
1530597920.545,-84.473,-2.441,111.328,-42.969,482.422
1530597920.549,37.598,34.668,-16.602,67.383,-219.727
1530597920.553,97.656,59.570,-83.984,131.836,180.664
1530597920.557,-5.371,20.020,13.184,35.645,852.539
1530597920.560,-94.727,-27.832,99.121,-66.406,97.168
1530597920.564,-2.930,13.184,21.484,29.297,125.488
1530597920.568,110.352,70.801,-96.680,144.043,729.980
1530597920.572,40.039,40.527,-46.387,62.988,205.078
1530597920.576,-86.426,-15.625,78.125,-65.918,-432.129
1530597920.580,-41.504,6.348,35.645,-7.812,-218.750
1530597920.584,95.703,66.406,-111.328,130.859,540.039
1530597920.588,75.684,49.316,-97.168,101.562,762.695
1530597920.592,-66.406,-19.043,36.133,-33.691,156.738
1530597920.596,-77.637,-28.320,47.852,-43.457,-221.191
1530597920.600,63.477,36.621,-84.961,104.492,741.699
1530597920.603,92.285,59.570,-128.418,125.000,466.309
1530597920.607,-31.738,13.672,-11.719,-8.301,-554.688
1530597920.611,-85.938,-15.625,65.430,-51.758,-165.527
1530597920.615,35.156,27.832,-35.645,77.148,274.902
1530597920.619,111.816,67.871,-130.859,144.531,-20.020
1530597920.623,17.578,24.902,-57.129,42.969,293.945
1530597920.627,-72.754,-29.297,45.410,-47.852,179.688
1530597920.631,-5.371,-0.488,-14.648,38.574,36.133
1530597920.635,100.098,51.758,-121.582,143.555,534.180
1530597920.639,52.246,36.621,-68.848,77.148,327.637
1530597920.643,-72.266,-19.531,66.895,-43.457,69.824
1530597920.646,-48.340,-16.113,28.320,-10.742,769.043
1530597920.650,84.473,47.852,-112.793,109.375,177.734
1530597920.654,82.031,58.594,-93.262,97.656,-244.629
1530597920.658,-53.711,-9.766,42.969,-24.902,182.129
1530597920.662,-74.707,-25.879,73.242,-35.156,78.125
1530597920.666,57.129,40.039,-55.664,86.914,-230.469
1530597920.670,92.773,59.082,-111.816,113.281,-306.641
1530597920.674,-30.762,-9.766,-0.488,4.395,247.070
1530597920.678,-104.492,-44.434,86.426,-61.035,292.480
1530597920.682,4.395,24.414,-14.648,54.199,297.363
1530597920.685,87.891,61.523,-108.398,133.789,509.277
1530597920.689,6.836,20.508,-21.973,45.898,833.496
1530597920.693,-88.867,-23.438,89.355,-48.340,450.684
1530597920.697,-20.508,3.418,15.137,17.578,-211.914
1530597920.701,96.680,58.594,-114.258,129.883,-142.578
1530597920.705,44.922,35.645,-65.430,77.637,147.461
1530597920.709,-84.473,-26.855,80.566,-46.875,-61.523
1530597920.713,-53.711,-17.578,74.219,-12.695,-65.430
1530597920.717,80.078,45.410,-79.102,119.141,177.246
1530597920.721,79.102,41.992,-96.191,106.934,108.398
1530597920.725,-51.758,-15.137,33.691,-26.367,-249.512
1530597920.728,-83.008,-16.113,80.078,-34.180,247.559
1530597920.732,46.387,37.598,-27.832,97.656,719.727
1530597920.736,96.191,44.434,-101.562,129.883,833.984
1530597920.740,-8.301,-7.812,-6.348,9.766,112.793
1530597920.744,-86.426,-43.457,97.168,-65.430,-346.191
1530597920.748,3.906,-6.836,3.906,44.922,130.859
1530597920.752,98.145,39.062,-107.422,132.324,67.383
1530597920.756,25.879,14.648,-25.391,52.246,-201.660
1530597920.760,-86.426,-36.133,103.027,-54.199,-113.770
1530597920.764,-32.715,-16.113,52.246,9.277,141.113
1530597920.767,91.309,36.133,-80.078,128.906,-19.043
1530597920.771,64.453,35.156,-52.246,89.355,-11.719
1530597920.775,-70.801,-32.715,73.242,-33.203,413.574
1530597920.779,-70.801,-44.922,78.125,-17.578,828.613
1530597920.783,70.312,22.949,-59.082,111.328,525.879
1530597920.787,86.914,28.320,-86.914,103.027,-252.930
1530597920.791,-42.969,-32.715,46.387,-15.625,-128.906
1530597920.795,-83.984,-48.340,110.840,-38.574,449.219
1530597920.799,49.805,20.020,-4.395,85.449,68.848
1530597920.803,110.840,43.457,-75.684,130.859,-377.930
1530597920.807,6.348,-9.277,25.391,24.414,-155.762
1530597920.810,-77.637,-41.504,123.535,-44.922,225.586
1530597920.814,9.766,-3.906,34.180,48.828,-160.645
1530597920.818,112.305,47.852,-78.125,139.160,-317.383
1530597920.822,44.434,19.531,-22.461,70.801,674.805
1530597920.826,-73.730,-35.645,99.121,-38.086,920.410
1530597920.830,-25.879,-19.531,78.613,7.324,17.090
1530597920.834,104.492,37.109,-51.270,131.836,-113.770
1530597920.838,73.730,29.785,-42.969,104.492,225.586
1530597920.842,-60.547,-21.484,88.379,-27.344,28.809
1530597920.846,-59.082,-13.184,109.375,-31.250,-417.480
1530597920.850,72.754,43.457,-24.902,103.027,-236.816
1530597920.853,98.633,46.387,-70.312,126.465,563.477
1530597920.857,-22.949,-6.348,38.574,1.465,298.828
1530597920.861,-84.473,-32.715,102.051,-55.664,-434.570
1530597920.865,34.180,17.090,-2.441,65.430,-218.750
1530597920.869,108.887,43.945,-78.613,136.230,664.551
1530597920.873,8.789,3.906,12.207,38.574,767.578
1530597920.877,-88.379,-30.762,118.652,-57.617,-253.906
1530597920.881,-9.766,9.766,45.898,27.832,-355.957
1530597920.885,104.004,62.988,-75.195,142.090,721.680
1530597920.889,46.387,32.227,-25.879,69.336,472.168
1530597920.892,-70.312,-21.484,110.840,-49.316,-379.395
1530597920.896,-40.527,-12.695,76.172,-10.742,-263.184
1530597920.900,91.797,47.363,-70.312,119.141,157.227
1530597920.904,89.844,64.453,-50.781,106.445,83.984
1530597920.908,-52.734,-4.883,76.660,-27.832,-180.664
1530597920.912,-74.707,-32.227,92.285,-35.645,263.184
1530597920.916,61.523,33.203,-37.598,101.562,823.242
1530597920.920,103.516,57.617,-70.801,130.371,476.562
1530597920.924,-14.160,5.371,45.898,16.602,-60.547
1530597920.928,-81.543,-25.879,113.281,-33.691,223.145
1530597920.932,24.902,23.438,14.648,80.078,815.918
1530597920.935,109.375,63.477,-73.730,139.160,20.508
1530597920.939,13.184,19.531,2.930,38.574,-370.117
1530597920.943,-90.820,-25.391,122.070,-49.316,97.168
1530597920.947,-13.672,1.953,61.523,25.879,51.758
1530597920.951,97.656,52.734,-76.172,125.488,-182.617
1530597920.955,46.387,31.738,-33.203,80.078,-88.379
1530597920.959,-70.801,-22.949,107.422,-36.133,295.410
1530597920.963,-45.898,-5.859,85.449,-9.766,456.543
1530597920.967,78.125,57.129,-49.805,117.676,646.973
1530597920.971,74.707,61.035,-52.734,104.004,567.383
1530597920.975,-56.152,-9.277,70.801,-25.391,391.602
1530597920.978,-86.914,-28.809,115.723,-52.734,42.480
1530597920.982,48.828,36.133,-13.672,79.102,-219.238
1530597920.986,99.609,59.082,-73.242,121.582,-94.727
1530597920.990,-7.812,17.090,52.734,24.902,706.055
1530597920.994,-83.984,-17.090,139.160,-52.246,281.738
1530597920.998,5.859,19.531,23.438,37.109,-392.090
1530597921.002,95.215,60.547,-93.262,123.047,-86.426
1530597921.006,18.555,28.320,-1.465,48.828,175.293
1530597921.010,-88.867,-16.602,130.859,-47.852,449.707
1530597921.014,-32.715,3.418,59.082,2.930,143.066
1530597921.017,91.309,56.152,-66.406,125.977,32.715
1530597921.021,57.129,46.387,-22.949,94.238,211.914
1530597921.025,-70.312,-7.324,116.211,-32.715,33.203
1530597921.029,-55.664,-3.418,128.418,-15.625,-30.273
1530597921.033,71.777,58.594,-33.203,108.398,402.344
1530597921.037,92.285,83.496,-63.965,119.629,743.164
1530597921.041,-19.531,33.203,73.242,-7.324,-223.145
1530597921.045,-83.496,-0.488,123.535,-51.270,-223.633
1530597921.049,27.832,45.898,4.883,75.195,389.160
1530597921.053,101.562,77.637,-66.406,125.000,-33.203
1530597921.057,-10.254,27.832,26.367,20.020,145.508
1530597921.060,-100.098,-19.531,131.836,-59.570,435.059
1530597921.064,-0.977,30.273,49.316,36.133,724.609
1530597921.068,105.469,92.285,-69.336,130.371,369.629
1530597921.072,36.133,62.500,5.859,50.781,-392.090
1530597921.076,-88.379,1.465,132.324,-52.734,-162.109
1530597921.080,-43.945,16.113,91.309,5.859,-8.301
1530597921.084,98.633,76.660,-45.898,131.348,173.340
1530597921.088,63.477,57.129,-39.551,93.262,199.219
1530597921.092,-79.590,-1.953,96.191,-40.039,-240.234
1530597921.096,-77.148,0.488,115.723,-32.715,-149.902
1530597921.099,64.453,63.965,-20.996,104.492,-4.395
1530597921.103,95.703,78.125,-47.852,126.465,349.609
1530597921.107,-32.227,15.625,62.988,5.859,477.539
1530597921.111,-87.402,-12.695,116.211,-41.016,767.578
1530597921.115,33.203,25.391,14.648,65.918,85.938
1530597921.119,103.027,43.457,-57.617,119.629,-503.906
1530597921.123,9.277,10.254,46.875,33.691,104.980
1530597921.127,-85.449,-30.762,140.137,-51.758,144.531
1530597921.131,-3.906,-2.930,54.199,27.344,-403.320
1530597921.135,106.445,48.828,-57.129,133.789,-259.766
1530597921.139,45.410,24.414,-13.672,69.336,563.965
1530597921.142,-76.172,-25.391,118.652,-44.434,560.059
1530597921.146,-44.434,-15.137,93.262,-14.160,-395.508
1530597921.150,84.961,34.180,-48.340,110.840,197.266
1530597921.154,73.730,37.109,-34.668,99.609,-969.238
1530597921.158,-54.688,-14.648,106.445,-25.879,407.227
1530597921.162,-68.359,-26.367,125.488,-37.109,-481.445
1530597921.166,59.570,31.738,-16.113,98.145,-241.699
1530597921.170,98.145,47.852,-58.105,135.254,188.965
1530597921.174,-31.250,-18.555,47.852,-3.418,-336.914
1530597921.178,-96.680,-47.852,125.488,-61.523,-348.145
1530597921.182,22.949,20.508,18.555,65.918,-71.777
1530597921.185,105.957,68.848,-76.172,134.277,-86.426
1530597921.189,10.742,18.066,30.762,35.645,-199.707
1530597921.193,-91.797,-33.203,151.855,-56.641,-209.961
1530597921.197,-14.160,-2.930,73.242,27.344,309.570
1530597921.201,98.633,46.875,-69.336,139.160,882.812
1530597921.205,46.875,35.156,-20.996,77.148,504.395
1530597921.209,-79.102,-20.996,121.094,-50.293,-356.445
1530597921.213,-56.641,-17.578,96.191,-17.578,-287.109
1530597921.217,74.707,40.527,-50.781,110.840,131.836
1530597921.221,76.660,39.551,-50.781,94.727,-60.547
1530597921.224,-56.152,-31.250,88.867,-34.180,-392.090
1530597921.228,-73.242,-46.387,130.371,-26.855,-104.492
1530597921.232,63.477,24.414,-13.672,111.816,123.047
1530597921.236,101.562,48.828,-68.359,122.070,-126.465
1530597921.240,-14.160,3.906,49.316,-2.930,-222.656
1530597921.244,-84.473,-12.207,133.301,-52.734,509.766
1530597921.248,27.832,34.668,31.738,60.547,698.730
1530597921.252,111.328,62.012,-87.402,121.582,-181.641
1530597921.256,25.879,29.785,-6.836,30.273,-19.043
1530597921.260,-87.891,-18.555,132.324,-58.105,807.617
1530597921.264,-26.855,5.371,68.359,6.348,70.801
1530597921.267,102.051,70.801,-69.824,113.770,-593.750
1530597921.271,52.734,54.199,-39.062,66.895,41.992
1530597921.275,-83.008,-8.789,93.750,-51.270,281.250
1530597921.279,-66.406,2.441,99.609,-32.227,-546.875
1530597921.283,73.242,69.336,-29.297,102.051,-519.043
1530597921.287,83.984,67.383,-42.969,113.281,65.918
1530597921.291,-48.828,-1.465,69.336,-9.277,506.348
1530597921.295,-85.938,-12.207,114.258,-44.922,346.680
1530597921.299,48.340,58.594,2.930,82.031,-241.211
1530597921.303,103.027,77.148,-61.035,127.930,119.629
1530597921.307,-14.648,27.832,39.551,18.555,806.641
1530597921.310,-91.309,0.977,129.395,-59.570,-87.891
1530597921.314,10.742,43.945,39.062,38.574,-123.535
1530597921.318,110.840,81.543,-66.895,132.812,559.082
1530597921.322,34.668,45.898,2.930,47.363,39.062
1530597921.326,-89.844,-9.277,123.047,-72.266,-446.289
1530597921.330,-33.203,11.719,75.195,-13.672,-464.844
1530597921.334,112.793,71.777,-66.895,121.582,352.051
1530597921.338,87.891,64.941,-39.551,91.309,832.520
1530597921.342,-50.293,-2.930,95.703,-45.898,236.816
1530597921.346,-48.828,-6.348,106.934,-37.598,-176.270
1530597921.349,75.684,59.570,-19.043,108.887,670.410
1530597921.353,92.773,66.406,-55.664,118.652,682.129
1530597921.357,-24.902,15.625,62.988,-13.184,-439.453
1530597921.361,-73.730,0.488,126.953,-49.316,-498.535
1530597921.365,39.062,45.410,0.977,77.148,186.035
1530597921.369,109.863,71.289,-71.777,133.301,-0.977
1530597921.373,7.324,25.879,35.156,31.250,19.531
1530597921.377,-89.355,-18.555,135.254,-48.828,422.363
1530597921.381,-0.488,29.785,55.664,36.621,128.418
1530597921.385,106.445,84.473,-67.871,135.742,439.453
1530597921.389,44.922,51.758,-15.137,66.895,423.340
1530597921.392,-83.496,-5.859,119.629,-52.246,122.559
1530597921.396,-44.922,17.090,95.703,-1.465,729.980
1530597921.400,84.961,72.266,-38.574,112.305,89.355
1530597921.404,59.570,52.246,-39.062,80.566,-307.617
1530597921.408,-65.430,-7.324,95.215,-30.273,83.496
1530597921.412,-63.477,-9.277,124.512,-26.855,-170.898
1530597921.416,62.988,48.340,-16.113,87.891,-370.117
1530597921.420,89.355,67.383,-53.711,111.816,-60.547
1530597921.424,-23.926,18.066,66.406,4.883,131.348
1530597921.428,-68.848,2.441,142.578,-40.527,-50.781
1530597921.431,48.340,56.641,33.691,85.938,480.469
1530597921.435,112.305,74.707,-73.730,145.508,587.402
1530597921.439,23.438,36.621,18.555,49.805,719.238
1530597921.443,-75.684,-10.742,135.742,-52.246,400.879
1530597921.447,-7.812,11.719,65.918,20.020,-289.551
1530597921.451,113.281,71.289,-53.223,138.672,-144.043
1530597921.455,67.871,54.688,-3.906,84.473,156.250
1530597921.459,-71.777,-8.789,123.535,-40.527,-302.734
1530597921.463,-54.199,-4.883,107.910,-6.836,-611.816
1530597921.467,86.914,54.199,-26.367,129.883,-65.918
1530597921.471,89.844,60.059,-34.668,120.117,144.531
1530597921.474,-43.945,2.930,85.938,-15.625,-403.320
1530597921.478,-74.219,-16.602,120.605,-28.809,98.633
1530597921.482,62.988,37.109,0.977,113.770,754.883
1530597921.486,124.512,65.918,-45.898,160.156,891.113
1530597921.490,-3.906,22.461,58.594,20.508,416.016
1530597921.494,-98.145,-6.836,136.230,-66.406,-323.730
1530597921.498,11.230,42.480,28.809,49.805,20.508
1530597921.502,104.492,89.355,-75.684,126.953,-70.312
1530597921.506,23.926,64.941,13.672,34.180,-450.684
1530597921.510,-93.750,22.461,127.930,-76.660,-271.973
1530597921.514,-28.320,50.781,55.176,-13.184,164.062
1530597921.517,88.867,104.980,-89.355,87.402,-125.000
1530597921.521,33.203,87.891,-57.617,30.762,-382.324
1530597921.525,-93.262,42.480,78.125,-84.473,434.570
1530597921.529,-79.102,58.105,61.523,-67.383,890.137
1530597921.533,53.711,108.887,-90.820,46.875,462.402
1530597921.537,67.871,113.281,-118.652,33.691,-262.207
1530597921.541,-58.594,63.477,4.395,-90.332,-288.574
1530597921.545,-100.586,38.086,50.781,-117.188,304.688
1530597921.549,28.320,93.262,-79.102,11.719,515.625
1530597921.553,87.402,139.160,-148.438,55.664,-60.547
1530597921.556,-22.461,96.680,-52.734,-47.363,209.473
1530597921.560,-109.375,44.434,27.344,-125.977,349.121
1530597921.564,-13.672,84.961,-66.895,-41.992,-258.789
1530597921.568,83.984,133.301,-187.500,50.293,-449.219
1530597921.572,-0.488,88.867,-114.746,-22.461,350.586
1530597921.576,-117.676,39.551,20.020,-126.953,931.641
1530597921.580,-45.410,78.613,-33.691,-65.918,-102.539
1530597921.584,87.891,132.324,-176.758,52.734,-504.395
1530597921.588,53.223,116.211,-149.902,21.973,132.324
1530597921.592,-81.055,50.781,-22.461,-104.004,-11.719
1530597921.596,-80.078,42.969,-14.648,-102.051,-613.281
1530597921.599,61.523,113.281,-134.277,44.434,-351.562
1530597921.603,78.125,110.352,-160.156,65.918,455.078
1530597921.607,-46.875,41.992,-49.805,-58.594,228.027
1530597921.611,-88.379,21.484,15.137,-101.562,-513.672
1530597921.615,39.551,76.660,-87.402,34.668,-354.004
1530597921.619,115.234,117.676,-162.109,114.258,561.523
1530597921.623,17.090,74.219,-64.941,10.742,741.211
1530597921.627,-81.055,20.508,45.410,-96.191,-134.277
1530597921.631,5.371,54.199,-41.992,-9.766,-442.383
1530597921.635,109.375,104.492,-164.551,106.934,562.012
1530597921.638,53.711,82.031,-88.379,44.434,488.770
1530597921.642,-66.406,20.020,50.293,-74.219,-243.652
1530597921.646,-33.203,33.203,20.996,-17.090,-426.270
1530597921.650,98.633,89.844,-122.070,112.793,-30.273
1530597921.654,78.125,75.195,-112.793,83.008,-70.312
1530597921.658,-53.223,24.902,33.691,-36.133,-405.762
1530597921.662,-55.176,22.949,62.012,-26.855,-154.297
1530597921.666,77.637,73.730,-86.426,105.469,515.625
1530597921.670,107.910,99.609,-123.047,124.512,645.508
1530597921.674,-19.043,44.434,4.883,-4.395,-308.105
1530597921.678,-78.613,5.371,84.473,-50.293,-229.492
1530597921.681,38.574,51.758,-21.973,75.684,797.363
1530597921.685,100.586,78.125,-116.211,121.094,14.160
1530597921.689,9.277,37.109,-17.578,21.484,-520.508
1530597921.693,-83.008,-8.789,104.980,-58.105,2.930
1530597921.697,-6.836,30.762,19.043,23.438,-19.531
1530597921.701,105.957,81.543,-128.906,125.488,-287.109
1530597921.705,55.176,48.828,-52.734,69.336,-151.367
1530597921.709,-74.219,-0.977,99.121,-42.480,254.395
1530597921.713,-43.945,6.348,65.430,1.465,303.711
1530597921.717,99.121,67.383,-81.055,133.789,307.129
1530597921.721,87.402,67.383,-79.590,111.816,621.582
1530597921.724,-45.410,1.953,61.035,-11.230,891.113
1530597921.728,-60.547,-10.254,87.402,-32.715,128.906
1530597921.732,74.219,58.105,-45.898,85.449,-416.016
1530597921.736,120.117,84.961,-95.215,127.930,102.051
1530597921.740,11.230,27.344,18.066,18.555,18.555
1530597921.744,-63.965,-17.090,104.980,-52.246,-589.355
1530597921.748,31.250,23.438,3.418,53.223,-484.375
1530597921.752,123.535,72.754,-99.609,136.719,-190.918
1530597921.756,52.246,48.340,-10.254,65.918,47.852
1530597921.760,-70.801,-7.812,125.000,-39.062,337.402
1530597921.763,-33.691,10.742,59.082,8.789,175.781
1530597921.767,86.426,71.777,-86.426,124.512,390.137
1530597921.771,57.129,46.387,-43.457,83.496,858.398
1530597921.775,-67.383,-13.184,104.004,-44.434,35.645
1530597921.779,-51.758,-1.953,96.191,-15.137,-132.324
1530597921.783,83.496,51.758,-49.805,119.629,257.324
1530597921.787,88.867,49.805,-53.223,109.863,147.949
1530597921.791,-43.457,-5.859,75.684,-23.926,-528.809
1530597921.795,-74.219,-9.277,122.070,-40.527,-511.230
1530597921.799,56.641,52.734,1.465,98.145,391.113
1530597921.803,107.422,65.430,-63.477,128.418,131.348
1530597921.806,-5.371,0.488,43.945,14.648,34.668
1530597921.810,-81.543,-37.109,126.953,-52.246,161.621
1530597921.814,11.230,14.160,34.180,56.641,687.988
1530597921.818,105.469,54.199,-68.848,145.996,453.125
1530597921.822,25.391,14.648,1.953,52.734,-601.074
1530597921.826,-89.355,-23.438,127.441,-43.457,-411.133
1530597921.830,-18.066,3.418,94.238,35.645,82.031
1530597921.834,104.004,45.410,-50.781,140.625,-26.855
1530597921.838,67.383,41.016,-36.621,95.703,215.332
1530597921.842,-52.246,-1.465,103.516,-24.902,-58.594
1530597921.846,-50.293,-7.812,100.586,-18.555,-313.477
1530597921.849,80.078,42.969,-43.945,105.469,-119.629
1530597921.853,96.680,57.129,-60.059,117.188,466.797
1530597921.857,-35.645,1.953,72.266,-4.883,589.844
1530597921.861,-80.566,-20.508,117.676,-43.457,719.727
1530597921.865,52.246,40.039,-8.789,78.613,130.371
1530597921.869,114.258,79.590,-69.336,125.977,-313.477
1530597921.873,7.324,26.367,29.297,21.484,-77.637
1530597921.877,-69.824,-9.277,128.906,-50.781,-196.777
1530597921.881,18.066,30.762,46.875,43.457,-295.410
1530597921.885,106.934,63.477,-74.707,133.301,-397.949
1530597921.888,43.457,50.293,3.418,70.801,9.766
1530597921.892,-66.406,-2.930,133.301,-40.039,381.348
1530597921.896,-27.344,12.207,81.543,5.371,11.230
1530597921.900,104.980,73.730,-54.688,142.090,244.141
1530597921.904,87.402,59.570,-39.062,121.094,921.875
1530597921.908,-56.641,0.488,92.285,-16.602,452.637
1530597921.912,-66.895,-1.953,114.258,-22.461,-397.949
1530597921.916,71.777,56.641,-27.344,110.840,-296.387
1530597921.920,99.609,71.289,-64.941,131.836,239.258
1530597921.924,-30.273,22.949,62.988,10.254,-286.133
1530597921.928,-88.867,-4.883,125.977,-42.480,-681.641
1530597921.931,29.297,35.645,11.230,76.660,-50.293
1530597921.935,108.398,71.777,-72.754,146.973,144.043
1530597921.939,19.531,40.039,35.156,45.898,-521.973
1530597921.943,-81.055,-4.883,145.996,-45.898,-515.137
1530597921.947,-2.930,20.508,66.406,46.875,449.707
1530597921.951,108.398,69.336,-53.711,142.090,946.289
1530597921.955,54.688,52.734,-8.789,59.570,81.055
1530597921.959,-67.383,-0.977,121.582,-59.570,-660.156
1530597921.963,-36.133,14.648,104.492,-11.719,-171.875
1530597921.967,94.238,76.172,-48.340,116.211,185.059
1530597921.970,81.055,59.570,-42.480,91.797,-288.574
1530597921.974,-48.828,4.395,111.816,-31.250,-299.805
1530597921.978,-71.289,-4.395,129.883,-36.621,239.258
1530597921.982,60.059,53.223,-8.301,93.750,-55.176
1530597921.986,106.445,85.938,-50.781,126.953,-260.742
1530597921.990,-17.578,30.762,68.848,10.742,-195.801
1530597921.994,-94.727,-5.859,146.973,-46.387,401.855
1530597921.998,16.602,40.527,33.203,64.453,715.820
1530597922.002,98.633,74.219,-62.988,126.953,-70.801
1530597922.006,10.254,41.992,26.855,33.691,-287.109
1530597922.010,-96.191,-11.230,138.184,-53.223,598.145
1530597922.013,-27.344,17.578,82.520,15.625,397.461
1530597922.017,93.750,79.590,-45.410,118.164,-417.480
1530597922.021,44.434,58.594,-13.184,68.359,-528.809
1530597922.025,-81.055,-9.277,124.512,-42.969,105.469
1530597922.029,-55.176,0.488,103.516,-16.602,-31.250
1530597922.033,83.008,63.477,-32.715,109.863,-606.445
1530597922.037,84.473,70.801,-24.414,105.469,-273.438
1530597922.041,-40.527,21.973,103.027,-13.672,512.695
1530597922.045,-66.406,-2.930,130.371,-41.016,307.129
1530597922.049,63.477,44.434,-3.418,80.078,-401.367
1530597922.053,110.352,65.430,-51.270,129.883,14.648
1530597922.056,-9.277,13.672,58.105,22.461,800.293
1530597922.060,-84.473,-20.996,139.648,-64.453,-168.457
1530597922.064,13.184,21.973,52.246,40.527,-302.734
1530597922.068,108.398,73.242,-56.641,135.254,539.551
1530597922.072,29.785,41.992,16.602,44.922,-76.660
1530597922.076,-88.867,-8.789,143.066,-57.129,-483.398
1530597922.080,-34.668,17.090,81.055,9.277,-211.914
1530597922.084,91.309,70.801,-55.664,127.930,203.613
1530597922.088,68.848,53.223,-2.441,98.633,570.801
1530597922.092,-59.570,-4.883,134.766,-30.273,363.281
1530597922.095,-62.012,-10.254,122.070,-27.344,-240.234
1530597922.099,69.336,44.434,-29.785,115.723,532.715
1530597922.103,82.031,54.688,-47.363,114.746,603.516
1530597922.107,-39.062,3.906,98.633,-21.484,-262.695
1530597922.111,-80.078,-14.648,145.996,-49.805,-268.555
1530597922.115,44.922,41.992,16.602,82.520,-40.039
1530597922.119,111.328,71.289,-52.246,127.441,-197.266
1530597922.123,4.395,24.902,55.176,37.109,-127.930
1530597922.127,-83.008,-17.578,154.785,-26.367,210.449
1530597922.131,3.906,15.625,59.570,47.852,109.863
1530597922.135,104.980,69.824,-49.805,145.020,425.293
1530597922.138,34.180,40.039,14.160,70.312,234.863
1530597922.142,-83.984,-22.949,142.578,-48.828,50.293
1530597922.146,-32.715,-4.883,100.586,17.090,779.785
1530597922.150,101.562,64.941,-41.016,131.348,-46.387
1530597922.154,80.078,58.105,-10.742,95.215,-526.855
1530597922.158,-48.340,-1.953,126.465,-16.113,108.887
1530597922.162,-54.688,-2.930,130.371,-19.531,92.773
1530597922.166,72.266,54.199,-12.695,98.145,-512.695
1530597922.170,91.797,66.406,-60.059,109.863,-281.738
1530597922.174,-25.879,12.695,76.172,2.930,339.844
1530597922.178,-81.055,-20.996,146.973,-43.457,-237.793
1530597922.181,41.504,41.992,14.160,82.520,277.344
1530597922.185,117.676,77.637,-58.105,150.879,875.977
1530597922.189,16.113,32.715,48.340,50.293,816.406
1530597922.193,-75.195,-6.836,150.879,-41.504,357.910
1530597922.197,3.906,16.113,67.871,28.320,-341.797
1530597922.201,110.352,61.523,-69.336,137.207,-88.379
1530597922.205,44.434,37.598,-15.625,75.684,218.750
1530597922.209,-77.148,-11.719,125.488,-47.363,-270.020
1530597922.213,-43.945,8.301,94.727,-9.277,-649.414
1530597922.217,83.008,67.871,-55.176,115.723,-264.160
1530597922.220,75.684,67.871,-39.062,98.145,175.293
1530597922.224,-58.594,11.230,110.352,-27.344,-122.070
1530597922.228,-81.543,-15.625,132.324,-37.109,38.086
1530597922.232,51.758,36.621,-10.254,92.285,534.180
1530597922.236,91.309,62.988,-60.059,122.559,795.898
1530597922.240,-18.066,20.508,60.547,7.812,222.656
1530597922.244,-78.613,-0.977,142.578,-47.363,-203.613
1530597922.248,24.902,42.480,36.621,60.547,-163.574
1530597922.252,101.562,60.059,-71.289,123.047,-55.664
1530597922.256,20.996,24.902,15.625,38.574,8.301
1530597922.260,-71.777,-1.953,141.113,-52.246,8.789
1530597922.263,-18.066,18.066,72.266,13.184,0.488
1530597922.267,91.309,59.082,-69.336,118.164,20.508
1530597922.271,47.852,49.316,-17.090,62.500,1.465
1530597922.275,-87.891,-1.953,127.930,-51.758,17.090
1530597922.279,-71.777,-2.930,108.398,-18.066,21.973
1530597922.283,74.707,56.641,-35.645,107.910,-2.930
1530597922.287,78.613,62.012,-50.781,92.285,10.254
1530597922.291,-52.246,8.301,82.031,-31.250,26.855
1530597922.295,-71.289,1.953,122.559,-38.086,13.672
1530597922.299,60.059,52.246,-18.555,98.145,13.672
1530597922.302,91.309,54.199,-71.777,121.582,6.836
1530597922.306,-25.879,0.977,52.734,6.836,-2.441
1530597922.310,-91.309,-25.879,144.043,-45.898,20.020
1530597922.314,5.859,16.602,41.992,54.199,19.043
1530597922.318,99.121,65.430,-56.641,129.883,5.859
1530597922.322,22.461,36.133,26.855,57.129,28.809
1530597922.326,-92.285,-13.184,144.531,-47.852,35.156
1530597922.330,-20.508,21.973,76.172,12.695,12.695
1530597922.334,105.957,77.637,-69.336,135.742,7.324
1530597922.338,62.012,41.992,-21.484,87.402,12.695
1530597922.342,-66.406,-24.902,123.047,-40.527,18.066
1530597922.345,-51.270,-5.859,114.746,-27.344,-0.977
1530597922.349,87.891,63.477,-35.156,107.910,4.883
1530597922.353,100.098,68.848,-50.293,114.258,9.766
1530597922.357,-25.391,11.719,83.984,-8.301,5.371
1530597922.361,-58.105,-2.441,128.906,-45.898,13.672
1530597922.365,61.035,55.664,-0.488,80.566,15.137
1530597922.369,111.816,74.219,-68.359,144.043,28.320
1530597922.373,6.836,21.484,46.875,43.457,9.277
1530597922.377,-82.520,-22.461,142.090,-53.711,-27.344
1530597922.381,9.277,13.184,55.664,37.109,12.207
1530597922.385,110.352,65.918,-61.035,150.879,8.789
1530597922.388,38.086,44.434,8.789,73.730,-12.695
1530597922.392,-82.520,-4.883,137.207,-45.410,20.020
1530597922.396,-38.574,14.648,78.613,1.465,10.742
1530597922.400,91.797,69.824,-62.988,121.582,6.348
1530597922.404,64.453,50.293,-40.527,83.496,9.766
1530597922.408,-72.754,-3.418,111.816,-42.480,-19.531
1530597922.412,-70.801,8.301,136.230,-20.996,7.324
1530597922.416,71.777,62.988,-2.930,120.117,28.809
1530597922.420,83.496,63.477,-36.621,124.512,18.555
1530597922.424,-44.922,0.977,82.031,-5.859,13.672
1530597922.427,-85.938,-22.949,143.066,-43.945,24.414
1530597922.431,42.480,48.828,19.531,88.867,27.344
1530597922.435,107.910,75.195,-77.148,133.301,16.113
1530597922.439,0.000,23.438,19.531,24.902,-3.906
1530597922.443,-93.262,-14.648,139.648,-55.176,5.859
1530597922.447,-2.441,16.602,61.035,35.645,23.438
1530597922.451,107.910,69.824,-58.105,134.766,7.324
1530597922.455,51.270,54.688,23.926,79.102,7.324
1530597922.459,-81.543,-9.766,147.461,-37.598,0.000
1530597922.463,-48.828,0.000,92.285,1.465,7.812
1530597922.467,94.238,71.289,-49.805,132.812,17.090
1530597922.470,77.148,64.941,-40.039,103.516,10.254
1530597922.474,-59.082,-6.348,97.168,-22.949,18.555
1530597922.478,-75.195,-10.254,131.348,-30.762,4.883
1530597922.482,59.082,51.270,0.488,96.680,-10.742
1530597922.486,101.074,75.684,-48.340,126.465,16.602
1530597922.490,-16.113,25.879,67.383,15.137,33.203
1530597922.494,-77.148,-8.301,144.531,-44.434,15.625
1530597922.498,33.691,44.922,22.461,63.965,8.789
1530597922.502,110.352,70.312,-66.406,140.625,-1.953
1530597922.506,22.949,21.484,27.344,56.641,16.113
1530597922.509,-84.961,-14.160,125.000,-52.734,12.207
1530597922.513,-13.184,31.250,62.988,18.555,5.371
1530597922.517,104.492,84.473,-58.105,129.395,20.020
1530597922.521,62.500,69.336,0.488,80.566,41.016
1530597922.525,-63.477,10.254,121.582,-53.711,24.902
1530597922.529,-37.109,12.695,97.656,-22.949,10.742
1530597922.533,100.098,76.172,-35.156,123.047,3.418
1530597922.537,77.148,67.383,-60.059,94.238,14.648
1530597922.541,-58.594,1.465,59.570,-38.574,17.090
1530597922.545,-72.266,-4.883,104.492,-43.945,-3.906
1530597922.549,58.594,61.523,-31.250,84.473,11.719
1530597922.552,109.375,84.473,-94.727,121.582,12.207
1530597922.556,0.488,30.273,19.043,15.625,6.836
1530597922.560,-70.801,2.930,113.281,-41.992,15.625
1530597922.564,30.273,41.016,10.742,62.500,34.668
1530597922.568,117.188,68.359,-114.746,131.348,27.832
1530597922.572,30.762,30.762,-49.316,38.086,7.324
1530597922.576,-68.359,-6.836,72.754,-46.875,-0.488
1530597922.580,-3.906,23.926,16.113,27.832,6.348
1530597922.584,104.004,69.336,-116.211,125.977,-12.207
1530597922.588,63.965,48.828,-85.449,82.520,10.742
1530597922.592,-66.406,-5.371,40.039,-32.715,15.137
1530597922.595,-53.223,2.930,32.715,-12.695,-4.395
1530597922.599,85.449,61.035,-105.957,118.164,13.184
1530597922.603,93.262,60.547,-122.559,120.605,8.789
1530597922.607,-36.621,7.324,7.324,-5.859,14.648
1530597922.611,-73.730,-5.371,51.758,-40.527,16.602
1530597922.615,51.758,38.574,-82.031,79.590,-20.020
1530597922.619,108.398,58.105,-142.090,122.559,5.859
1530597922.623,-6.348,13.184,-33.203,21.484,23.438
1530597922.627,-88.379,-14.160,60.547,-45.898,-8.789
1530597922.631,11.230,31.250,-30.762,43.457,9.277
1530597922.634,104.492,66.895,-139.160,139.160,8.789
1530597922.638,25.391,31.738,-57.617,64.941,8.789
1530597922.642,-82.520,-16.602,71.289,-50.781,27.832
1530597922.646,-26.367,-1.465,24.902,9.766,25.879
1530597922.650,96.191,55.176,-110.352,133.789,11.719
1530597922.654,73.242,58.594,-90.820,103.516,21.484
1530597922.658,-60.547,0.977,47.363,-24.902,8.789
1530597922.662,-63.477,-15.137,61.523,-33.203,6.836
1530597922.666,69.824,36.133,-83.496,96.680,11.719
1530597922.670,90.332,58.594,-114.746,123.535,8.789
1530597922.674,-34.668,3.906,17.578,0.000,14.648
1530597922.677,-87.402,-27.344,81.543,-43.945,-4.395
1530597922.681,37.109,33.203,-42.969,85.449,5.859
1530597922.685,109.375,67.383,-127.441,145.020,7.324
1530597922.689,12.695,11.230,-13.184,39.062,-7.812
1530597922.693,-74.219,-28.809,96.680,-43.945,9.766
1530597922.697,14.160,20.020,17.090,60.059,31.738
1530597922.701,117.188,69.824,-95.703,156.250,43.457
1530597922.705,41.992,33.691,-56.641,65.430,8.301
1530597922.709,-98.633,-24.902,69.336,-63.477,-25.879
1530597922.713,-54.199,-0.488,47.363,-10.254,10.742
1530597922.717,87.402,58.594,-88.867,122.070,11.230
1530597922.720,69.824,48.340,-77.148,93.262,-4.395
1530597922.724,-63.965,-8.301,54.688,-31.738,21.973
1530597922.728,-74.707,-17.090,78.613,-29.297,22.461
1530597922.732,71.289,48.828,-59.570,105.469,9.766
1530597922.736,98.145,70.312,-94.727,119.629,8.789
1530597922.740,-27.832,9.277,39.551,1.953,-9.766
1530597922.744,-85.938,-20.996,110.352,-38.086,12.207
1530597922.748,20.020,22.949,-22.949,64.941,27.344
1530597922.752,104.980,63.477,-105.957,119.141,2.930
1530597922.756,19.531,44.434,2.930,40.527,11.719
1530597922.759,-88.379,-3.418,109.863,-39.551,39.551
1530597922.763,-11.719,17.578,23.926,26.855,14.648
1530597922.767,102.539,69.824,-102.051,124.512,10.742
1530597922.771,42.969,38.574,-45.898,70.312,5.371
1530597922.775,-81.543,-13.672,91.309,-45.898,8.789
1530597922.779,-52.734,8.301,70.312,-14.648,22.461
1530597922.783,75.684,62.988,-74.219,108.887,6.836
1530597922.787,74.707,58.105,-63.965,104.004,5.859
1530597922.791,-55.664,3.418,73.242,-10.742,5.859
1530597922.795,-78.613,2.441,104.980,-32.715,13.184
1530597922.799,58.105,62.988,-25.391,96.191,15.625
1530597922.802,90.332,60.547,-85.449,123.535,21.973
1530597922.806,-27.832,6.348,38.086,9.277,24.902
1530597922.810,-88.867,-14.648,129.883,-56.641,1.953
1530597922.814,16.602,28.320,30.273,50.781,0.977
1530597922.818,104.004,67.383,-69.824,139.160,15.137
1530597922.822,28.320,39.062,11.719,55.664,-13.672
1530597922.826,-68.848,-5.859,122.559,-48.340,-1.465
1530597922.830,-8.301,14.160,57.617,27.832,22.949
1530597922.834,104.980,63.965,-56.152,147.949,18.555
1530597922.838,63.965,50.781,-22.949,98.633,20.508
1530597922.841,-64.453,-4.883,101.074,-29.785,3.906
1530597922.845,-55.176,-1.953,101.074,-19.531,-7.812
1530597922.849,80.566,62.500,-48.828,119.629,19.043
1530597922.853,84.473,58.105,-77.148,108.398,12.207
1530597922.857,-52.246,-5.859,62.988,-33.691,7.324
1530597922.861,-81.543,-17.090,121.094,-53.223,18.066
1530597922.865,42.480,38.086,-4.883,80.566,-3.906
1530597922.869,100.586,72.266,-85.449,125.000,9.766
1530597922.873,-1.465,33.691,15.625,17.578,20.020
1530597922.877,-77.148,3.418,128.418,-46.387,6.348
1530597922.881,20.996,38.086,33.203,57.617,17.090
1530597922.884,104.980,61.523,-79.590,140.137,35.156
1530597922.888,26.367,28.320,-0.977,54.688,16.602
1530597922.892,-87.402,-15.137,121.582,-58.594,16.113
1530597922.896,-32.715,15.137,68.359,0.977,27.832
1530597922.900,88.379,72.754,-61.523,116.211,14.648
1530597922.904,56.641,57.129,-33.691,78.125,12.207
1530597922.908,-61.035,-2.441,101.074,-36.621,14.648
1530597922.912,-55.176,-1.465,102.539,-21.973,12.207
1530597922.916,76.172,58.105,-45.898,104.980,-13.672
1530597922.920,95.703,69.824,-63.477,118.164,9.766
1530597922.924,-40.039,11.719,69.336,-9.277,12.207
1530597922.927,-88.867,-20.996,130.371,-55.176,-7.812
1530597922.931,39.551,37.598,8.789,78.125,12.695
1530597922.935,104.004,73.242,-69.824,133.789,9.766
1530597922.939,-3.906,25.879,29.785,25.391,20.508
1530597922.943,-97.168,-12.695,133.789,-58.105,20.020
1530597922.947,-5.859,33.203,56.641,29.297,-11.230
1530597922.951,112.793,92.285,-58.594,133.789,10.254
1530597922.955,59.570,54.688,0.977,76.172,22.461
1530597922.959,-74.219,-7.324,122.070,-50.781,-5.859
1530597922.963,-52.246,1.953,80.078,-17.090,10.254
1530597922.966,83.008,58.594,-48.340,119.629,11.719
1530597922.970,62.012,55.664,-28.320,96.680,0.000
1530597922.974,-83.496,-11.719,104.004,-39.062,22.461
1530597922.978,-94.238,-17.578,129.883,-36.133,24.902
1530597922.982,50.293,43.457,-7.812,104.492,12.695
1530597922.986,87.402,60.547,-38.574,132.324,18.066
1530597922.990,-29.785,12.207,89.844,9.766,3.418
1530597922.994,-88.379,-13.184,141.113,-46.875,8.301
1530597922.998,19.531,30.762,23.438,67.383,32.715
1530597923.002,98.633,70.801,-44.434,134.766,18.555
1530597923.006,7.324,33.203,45.898,36.133,11.230
1530597923.009,-96.191,-29.785,143.555,-55.664,7.812
1530597923.013,-11.719,9.277,74.707,38.574,10.742
1530597923.017,101.562,62.500,-45.898,140.625,5.859
1530597923.021,38.086,35.156,-0.488,67.871,-10.254
1530597923.025,-85.449,-13.184,131.348,-43.457,8.301
1530597923.029,-48.340,6.836,112.793,1.953,40.527
1530597923.033,85.449,63.965,-41.016,121.094,33.203
1530597923.037,73.730,58.594,-30.273,93.262,0.488
1530597923.041,-55.664,3.418,117.188,-27.832,-17.090
1530597923.045,-69.824,-5.859,132.324,-34.668,12.695
1530597923.048,63.477,49.316,-4.395,92.773,13.672
1530597923.052,94.238,62.988,-51.270,124.512,-0.977
1530597923.056,-19.531,15.625,60.547,10.742,20.020
1530597923.060,-78.613,-13.184,145.020,-40.527,8.301
1530597923.064,11.719,24.902,30.273,53.223,2.441
1530597923.068,93.262,65.918,-68.359,119.141,14.160
1530597923.072,16.113,41.992,32.227,48.340,6.348
1530597923.076,-89.844,-4.395,148.926,-51.758,17.578
1530597923.080,-18.555,21.973,75.684,5.371,24.902
1530597923.084,97.656,59.570,-65.430,121.094,8.789
1530597923.088,51.270,45.898,-16.602,82.031,12.695
1530597923.091,-73.242,7.812,128.418,-39.062,5.371
1530597923.095,-59.082,-0.488,109.375,-27.832,-4.395
1530597923.099,71.289,46.875,-30.273,104.004,20.020
1530597923.103,71.777,51.270,-30.762,110.840,34.180
1530597923.107,-65.918,-5.859,95.215,-21.484,18.066
1530597923.111,-94.238,-19.531,138.672,-52.246,19.043
1530597923.115,40.039,48.340,8.301,81.055,10.742
1530597923.119,93.262,80.078,-61.523,136.719,4.883
1530597923.123,-20.508,21.484,54.199,23.438,-7.812
1530597923.127,-98.145,-25.879,145.508,-59.570,-2.930
1530597923.131,5.371,18.555,45.898,38.574,24.902
1530597923.134,103.027,68.848,-57.617,138.184,53.711
1530597923.138,26.367,27.344,6.348,52.246,27.344
1530597923.142,-87.402,-23.438,116.699,-60.547,0.977
1530597923.146,-24.902,12.207,87.891,17.090,7.324
1530597923.150,91.797,63.965,-38.574,131.836,14.648
1530597923.154,55.664,52.734,-10.254,90.332,-11.230
1530597923.158,-60.059,14.648,132.812,-25.391,3.906
1530597923.162,-55.664,2.441,126.953,-13.184,20.020
1530597923.166,66.895,45.410,-25.391,115.723,9.277
1530597923.170,83.008,55.664,-52.734,116.699,20.020
1530597923.173,-38.086,5.859,77.148,-10.254,3.418
1530597923.177,-84.473,-17.090,134.766,-53.223,0.000
1530597923.181,39.062,36.133,17.578,80.078,24.902
1530597923.185,104.980,70.801,-60.547,133.789,5.371
1530597923.189,1.465,23.438,44.922,20.996,7.812
1530597923.193,-94.727,-21.973,163.086,-62.988,14.160
1530597923.197,-11.230,20.020,65.918,28.809,-8.789
1530597923.201,98.633,72.266,-62.988,128.906,10.254
1530597923.205,32.227,46.387,4.395,57.617,24.414
1530597923.209,-90.820,-6.836,127.441,-54.688,17.090
1530597923.213,-40.039,8.789,90.820,0.488,18.555
1530597923.216,94.727,67.871,-55.664,127.441,27.832
1530597923.220,73.242,62.012,-38.574,90.332,15.137
1530597923.224,-52.734,6.348,108.398,-28.320,8.301
1530597923.228,-53.223,4.883,128.418,-18.066,-2.930
1530597923.232,64.941,49.805,-7.324,90.820,8.789
1530597923.236,78.613,58.105,-44.434,105.469,21.973
1530597923.240,-42.480,17.090,73.242,-0.488,16.602
1530597923.244,-88.867,0.000,129.883,-46.875,7.324
1530597923.248,26.367,45.898,10.254,62.988,-11.719
1530597923.252,100.098,70.801,-70.312,125.488,7.812
1530597923.256,19.531,35.156,32.715,44.434,18.555
1530597923.259,-81.543,-16.113,145.508,-40.527,20.996
1530597923.263,-7.812,2.441,64.453,33.203,15.625
1530597923.267,110.352,63.477,-57.129,135.254,15.137
1530597923.271,50.781,41.504,-0.977,75.684,37.598
1530597923.275,-76.172,-23.438,120.605,-50.781,17.578
1530597923.279,-51.758,-9.766,91.797,-13.184,-6.348
1530597923.283,73.730,49.316,-54.199,118.652,17.090
1530597923.287,70.801,51.270,-51.270,98.633,22.461
1530597923.291,-58.105,-1.953,100.098,-25.879,-0.488
1530597923.295,-77.148,-4.883,144.531,-30.762,12.695
1530597923.298,58.594,44.434,4.883,107.910,7.324
1530597923.302,97.656,56.641,-67.383,133.301,0.000
1530597923.306,-23.438,5.371,56.152,13.184,22.461
1530597923.310,-89.844,-29.785,142.090,-48.828,8.301
1530597923.314,9.766,9.277,14.160,53.223,8.789
1530597923.318,89.844,47.852,-74.219,116.211,20.508
1530597923.322,10.254,24.902,36.133,17.578,-2.441
1530597923.326,-84.961,-13.184,147.949,-68.848,7.324
1530597923.330,-6.836,14.648,69.824,17.578,18.066
1530597923.334,102.051,61.523,-64.941,119.629,10.254
1530597923.338,43.945,42.480,-16.602,62.012,15.625
1530597923.341,-78.613,-13.184,126.465,-43.945,11.719
1530597923.345,-65.918,-5.371,113.770,-18.066,9.277
1530597923.349,64.941,55.176,-36.133,107.910,9.766
1530597923.353,66.895,50.293,-44.922,109.375,19.531
1530597923.357,-60.547,-6.836,86.914,-10.742,20.996
1530597923.361,-80.078,-5.859,126.953,-25.391,24.902
1530597923.365,60.547,49.316,4.395,109.863,19.043
1530597923.369,104.004,52.734,-59.570,137.695,3.418
1530597923.373,-15.137,3.418,48.828,20.508,6.348
1530597923.377,-86.914,-13.184,146.973,-41.016,22.949
1530597923.380,16.602,30.762,48.828,59.082,6.348
1530597923.384,104.980,60.547,-66.406,139.160,-2.441
1530597923.388,25.879,25.391,13.184,66.406,20.020
1530597923.392,-81.543,-20.508,138.184,-41.992,10.742
1530597923.396,-20.020,8.301,85.449,16.602,9.766
1530597923.400,98.633,63.965,-54.688,134.277,15.137
1530597923.404,52.246,45.898,-20.508,89.355,23.438
1530597923.408,-74.219,-5.859,114.258,-34.180,27.832
1530597923.412,-65.918,-2.930,100.586,-33.691,22.461
1530597923.416,62.988,46.875,-41.016,95.215,11.719
1530597923.420,76.172,55.664,-55.176,105.469,13.184
1530597923.423,-42.969,14.160,80.078,-16.113,2.441
1530597923.427,-95.215,-16.113,133.301,-55.176,-6.836
1530597923.431,21.484,31.738,2.441,67.871,22.949
1530597923.435,93.750,74.219,-66.895,125.000,18.066
1530597923.439,-10.254,27.344,39.551,12.207,5.859
1530597923.443,-102.051,-12.207,134.277,-66.406,28.320
1530597923.447,-7.812,28.320,43.945,40.527,32.227
1530597923.451,101.074,71.289,-66.895,144.043,11.230
1530597923.455,31.738,47.852,5.859,62.012,0.977
1530597923.459,-86.914,-5.859,134.766,-52.246,8.301
1530597923.463,-42.480,-1.953,88.867,0.488,16.602
1530597923.466,83.008,51.270,-54.688,122.070,7.324
1530597923.470,68.848,46.875,-28.320,94.727,10.254
1530597923.474,-55.176,-5.859,118.652,-25.879,8.301
1530597923.478,-55.176,-6.836,120.117,-17.578,20.020
1530597923.482,83.496,58.105,-23.438,113.770,20.020
1530597923.486,102.051,75.195,-41.992,122.070,-9.766
1530597923.490,-33.203,8.789,73.242,4.395,8.301
1530597923.494,-80.078,-18.066,142.578,-26.855,19.531
1530597923.498,41.992,34.668,20.996,88.867,1.953
1530597923.502,105.957,62.988,-70.312,136.719,12.207
1530597923.505,9.277,17.090,30.273,29.297,11.230
1530597923.509,-90.332,-22.949,138.672,-58.105,22.461
1530597923.513,-10.742,17.578,55.664,32.227,27.832
1530597923.517,104.980,76.660,-70.801,128.418,1.465
1530597923.521,45.410,63.965,-8.301,62.012,6.836
1530597923.525,-77.637,2.441,117.676,-51.270,15.625
1530597923.529,-38.574,10.742,86.914,-6.836,-2.441
1530597923.533,84.961,59.082,-60.547,112.305,9.766
1530597923.537,60.059,45.410,-69.824,83.008,29.297
1530597923.541,-63.965,-0.488,65.430,-24.902,24.414
1530597923.545,-63.965,-1.465,99.609,-25.879,16.113
1530597923.548,63.965,52.246,-57.129,85.449,11.230
1530597923.552,90.332,70.801,-106.445,110.840,9.766
1530597923.556,-25.391,17.578,26.855,1.465,11.719
1530597923.560,-87.402,-13.184,95.703,-65.918,-1.465
1530597923.564,18.555,35.156,-21.484,48.340,9.277
1530597923.568,100.586,68.848,-119.629,125.000,24.414
1530597923.572,5.371,21.484,-41.016,30.273,15.137
1530597923.576,-101.562,-21.973,69.336,-68.359,4.883
1530597923.580,-21.973,21.484,0.977,9.277,-7.812
1530597923.584,99.609,76.172,-136.719,126.465,14.160
1530597923.588,48.340,49.316,-86.426,74.219,18.066
1530597923.591,-80.566,-5.371,62.012,-49.805,15.625
1530597923.595,-51.270,0.977,32.227,-17.578,18.066
1530597923.599,83.496,56.152,-112.305,117.676,15.625
1530597923.603,83.496,61.035,-109.375,108.398,17.578
1530597923.607,-44.922,-1.953,21.484,-28.320,13.184
1530597923.611,-70.312,-20.996,65.430,-38.574,-7.812
1530597923.615,62.012,29.785,-73.242,109.863,10.742
1530597923.619,111.328,74.707,-131.348,140.137,23.438
1530597923.623,-3.418,50.293,3.906,20.996,4.883
1530597923.627,-87.891,0.000,83.496,-50.293,13.184
1530597923.630,14.160,38.086,-37.598,60.547,8.789
1530597923.634,108.887,95.703,-139.648,143.066,13.672
1530597923.638,27.344,64.941,-47.363,50.293,21.973
1530597923.642,-95.215,-1.953,71.777,-66.895,21.484
1530597923.646,-30.273,24.414,5.371,7.324,25.879
1530597923.650,101.074,88.379,-125.000,123.535,16.602
1530597923.654,59.082,64.941,-68.848,68.848,-3.418
1530597923.658,-71.777,-7.324,70.801,-48.340,6.348
1530597923.662,-58.594,1.465,46.387,-23.438,24.414
1530597923.666,78.613,77.148,-85.449,105.469,10.742
1530597923.670,89.355,77.148,-88.379,101.074,17.578
1530597923.673,-44.922,15.625,32.715,-20.996,44.434
1530597923.677,-86.914,-0.977,71.777,-53.711,16.602
1530597923.681,44.434,54.199,-49.805,72.266,4.883
1530597923.685,107.422,83.984,-113.281,126.465,18.066
1530597923.689,-5.371,38.086,-6.836,25.391,20.996
1530597923.693,-93.750,-9.277,86.426,-55.176,11.719
1530597923.697,4.395,23.438,-3.418,36.621,7.324
1530597923.701,105.957,72.266,-112.793,135.742,12.207
1530597923.705,33.691,46.387,-30.273,72.266,-3.906
1530597923.709,-85.449,-6.836,105.469,-44.922,11.719
1530597923.712,-33.203,16.602,51.270,-0.488,9.277
1530597923.716,93.750,70.801,-98.145,129.395,-2.441
1530597923.720,49.316,46.875,-78.125,88.867,20.508
1530597923.724,-78.613,-12.207,67.383,-40.527,14.160
1530597923.728,-71.777,-10.254,80.566,-28.809,8.789
1530597923.732,64.453,49.805,-58.594,110.352,22.949
1530597923.736,86.914,55.176,-89.844,120.117,38.086
1530597923.740,-34.668,3.906,22.461,-7.324,23.438
1530597923.744,-76.660,-9.766,98.633,-37.109,20.020
1530597923.748,47.852,40.039,-1.953,81.543,20.996
1530597923.752,117.676,68.359,-85.938,139.648,19.531
1530597923.755,10.254,15.137,13.672,38.574,3.418
1530597923.759,-91.309,-32.227,117.676,-50.781,-1.465
1530597923.763,-4.883,13.672,36.133,42.480,18.066
1530597923.767,102.051,59.570,-91.309,130.859,16.113
1530597923.771,38.086,28.809,-33.203,55.664,9.277
1530597923.775,-81.055,-21.973,111.816,-44.922,26.367
1530597923.779,-38.574,0.000,91.309,7.812,40.039
1530597923.783,97.168,57.129,-65.430,124.512,14.648
1530597923.787,79.102,35.645,-59.570,87.402,-13.672
1530597923.791,-54.199,-22.461,88.379,-31.738,2.441
1530597923.795,-77.148,-26.367,108.887,-31.250,18.555
1530597923.798,51.758,34.180,-20.508,93.262,11.719
1530597923.802,91.309,56.641,-62.500,118.652,14.160
1530597923.806,-29.785,-2.441,57.617,0.977,9.766
1530597923.810,-89.355,-34.180,125.000,-55.176,7.812
1530597923.814,26.367,14.648,7.324,54.688,11.230
1530597923.818,91.309,44.434,-77.148,122.559,-0.488
1530597923.822,-5.371,13.184,12.695,36.133,19.531
1530597923.826,-93.262,-20.996,133.789,-45.410,16.113
1530597923.830,-23.438,6.836,51.758,22.949,-9.277
1530597923.834,89.355,52.734,-89.355,125.977,14.648
1530597923.837,43.945,35.156,-27.344,76.660,12.207
1530597923.841,-80.566,-6.348,105.957,-41.992,-1.953
1530597923.845,-44.922,3.906,82.031,-5.371,18.066
1530597923.849,92.773,50.293,-53.223,124.512,11.230
1530597923.853,83.984,45.410,-51.270,112.793,10.254
1530597923.857,-57.129,-7.324,80.566,-17.090,20.996
1530597923.861,-91.797,-26.855,102.051,-43.457,12.207
1530597923.865,45.410,20.508,-30.273,83.496,10.254
1530597923.869,104.492,58.594,-72.266,137.207,35.645
1530597923.873,-18.555,18.066,28.809,16.602,23.438
1530597923.877,-97.656,-17.090,109.863,-62.988,9.277
1530597923.880,12.695,26.855,20.020,50.781,17.090
1530597923.884,106.934,65.918,-74.707,142.090,16.602
1530597923.888,29.297,35.156,6.348,60.059,12.207
1530597923.892,-87.891,-22.461,119.141,-56.641,-0.977
1530597923.896,-30.762,-9.766,50.781,11.719,11.230
1530597923.900,97.656,45.410,-71.289,139.160,18.555
1530597923.904,57.617,21.484,-23.438,91.309,12.695
1530597923.908,-66.406,-25.879,99.609,-36.133,6.348
1530597923.912,-56.152,-6.836,93.750,-18.555,0.977
1530597923.916,71.777,54.688,-52.246,112.793,22.461
1530597923.919,88.379,72.266,-77.637,107.910,15.625
1530597923.923,-38.574,16.602,65.918,-23.438,4.883
1530597923.927,-75.684,-11.230,124.023,-50.293,15.625
1530597923.931,40.039,35.156,-12.207,73.242,11.230
1530597923.935,84.473,53.711,-82.520,106.445,6.836
1530597923.939,-10.254,22.461,38.086,8.789,16.113
1530597923.943,-92.773,-14.160,130.859,-62.500,15.625
1530597923.947,4.883,23.438,25.879,29.297,17.578
1530597923.951,111.816,65.918,-89.355,123.047,20.996
1530597923.955,29.785,27.344,-12.207,51.270,10.742
1530597923.959,-83.984,-11.719,122.070,-48.340,11.230
1530597923.962,-26.855,18.066,82.520,10.254,15.625
1530597923.966,101.074,75.195,-47.852,129.395,14.160
1530597923.970,68.848,52.734,-37.109,89.844,25.391
1530597923.974,-60.059,-7.324,104.980,-24.902,50.293
1530597923.978,-54.688,-5.859,116.699,-18.555,26.367
1530597923.982,78.613,45.410,-34.180,102.051,11.719
1530597923.986,104.492,63.477,-61.523,120.605,0.488
1530597923.990,-20.996,15.625,54.688,2.930,8.301
1530597923.994,-83.984,-12.207,122.559,-47.363,17.090
1530597923.998,33.203,32.227,12.207,72.754,8.301
1530597924.002,105.469,70.312,-73.242,139.160,14.160
1530597924.005,-1.953,29.785,33.691,38.086,6.348
1530597924.009,-92.285,-6.836,149.414,-35.645,10.742
1530597924.013,-6.348,20.996,55.176,48.828,6.348
1530597924.017,91.797,57.617,-61.035,130.859,6.836
1530597924.021,29.297,39.551,2.441,71.777,22.461
1530597924.025,-88.867,-15.137,116.699,-52.246,13.184
1530597924.029,-44.434,2.441,87.891,-9.277,13.184
1530597924.033,83.984,62.012,-46.875,124.512,6.836
1530597924.037,61.523,51.270,-32.715,90.820,-14.648
1530597924.041,-69.824,8.789,107.910,-38.086,10.254
1530597924.044,-79.590,-0.977,123.047,-38.574,14.160
1530597924.048,54.199,49.805,-17.090,98.145,23.438
1530597924.052,87.402,65.430,-56.152,113.770,25.879
1530597924.056,-38.086,2.930,52.246,-12.695,20.508
1530597924.060,-90.820,-19.531,135.254,-64.941,19.043
1530597924.064,29.785,41.504,35.645,59.570,12.207
1530597924.068,105.957,67.383,-66.406,126.465,-5.859
1530597924.072,16.113,23.926,28.320,24.902,9.766
1530597924.076,-76.660,-12.207,144.531,-54.199,29.785
1530597924.080,-1.465,17.578,60.547,30.762,11.719
1530597924.084,116.699,57.617,-70.801,127.930,10.742
1530597924.087,58.105,38.574,-15.137,71.777,8.301
1530597924.091,-75.195,-6.348,114.258,-37.598,8.301
1530597924.095,-41.504,5.859,98.633,-9.277,19.043
1530597924.099,85.938,59.570,-36.133,110.840,11.230
1530597924.103,78.125,49.805,-31.250,104.004,5.859
1530597924.107,-45.898,-3.418,105.469,-18.555,32.715
1530597924.111,-73.242,-19.043,126.953,-39.551,52.734
1530597924.115,56.152,29.785,-13.184,81.543,14.648
1530597924.119,94.727,59.082,-57.617,112.305,-12.695
1530597924.123,-18.555,16.602,61.035,9.277,11.719
1530597924.127,-86.914,-20.996,138.184,-43.457,18.066
1530597924.130,11.230,26.367,28.809,61.523,-1.465
1530597924.134,97.168,61.035,-76.660,125.977,12.695
1530597924.138,15.137,16.602,21.973,40.039,5.859
1530597924.142,-86.426,-30.273,148.926,-51.270,-0.488
1530597924.146,-13.672,5.859,83.008,18.066,12.695
1530597924.150,108.398,63.965,-50.293,136.230,8.301
1530597924.154,57.617,36.621,-19.531,87.402,28.320
1530597924.158,-78.125,-24.414,104.980,-46.875,15.625
1530597924.162,-58.594,-12.695,100.098,-38.574,-8.301
1530597924.166,81.055,49.805,-29.785,99.121,17.090
1530597924.169,75.195,44.922,-50.293,100.586,5.859
1530597924.173,-51.270,0.000,86.914,-31.250,-6.836
1530597924.177,-79.590,-11.719,134.766,-52.734,19.531
1530597924.181,42.969,36.133,-7.812,79.590,13.672
1530597924.185,93.262,61.035,-70.312,114.746,15.625
1530597924.189,-23.438,7.324,40.039,3.906,12.695
1530597924.193,-101.074,-29.297,131.348,-60.547,-11.719
1530597924.197,10.254,29.785,44.922,51.270,9.766
1530597924.201,102.051,71.289,-72.266,134.277,30.762
1530597924.205,20.020,30.273,0.977,45.898,20.020
1530597924.209,-92.773,-15.137,138.184,-53.711,13.672
1530597924.212,-27.344,10.742,86.426,10.254,22.949
1530597924.216,104.492,66.406,-54.688,130.859,18.555
1530597924.220,62.988,54.688,-31.250,86.426,9.766
1530597924.224,-63.477,-3.906,116.211,-33.203,0.000
1530597924.228,-61.035,-8.789,113.770,-17.090,10.742
1530597924.232,70.312,53.223,-43.457,109.863,18.066
1530597924.236,91.797,69.336,-64.453,114.746,4.395
1530597924.240,-34.668,14.160,63.965,-10.254,10.254
1530597924.244,-91.797,-19.043,129.395,-44.434,21.973
1530597924.248,26.855,29.785,16.113,80.566,21.973
1530597924.251,93.750,64.453,-63.965,126.953,11.230
1530597924.255,-13.184,20.508,38.574,18.555,5.371
1530597924.259,-101.074,-15.137,147.461,-48.340,15.137
1530597924.263,-2.930,32.227,59.570,53.223,7.812
1530597924.267,105.469,81.543,-67.383,142.090,11.719
1530597924.271,36.621,48.828,-7.812,66.895,16.113
1530597924.275,-90.332,-13.184,118.164,-48.828,-20.020
1530597924.279,-46.875,-4.395,86.426,-4.883,4.395
1530597924.283,92.773,54.688,-47.852,125.977,23.926
1530597924.287,73.242,56.152,-21.973,102.539,2.930
1530597924.291,-54.688,-4.395,108.887,-21.973,14.648
1530597924.294,-54.688,2.930,114.746,-20.508,12.695
1530597924.298,77.637,69.824,-22.461,106.934,5.859
1530597924.302,104.004,73.730,-66.406,121.094,24.902
1530597924.306,-11.719,22.949,59.570,16.113,46.387
1530597924.310,-62.988,1.953,131.836,-32.227,17.090
1530597924.314,36.133,43.457,16.602,68.848,15.137
1530597924.318,104.980,72.754,-55.664,143.555,25.879
1530597924.322,12.695,37.598,33.691,54.199,18.066
1530597924.326,-83.496,-5.859,127.441,-40.527,11.719
1530597924.330,-3.906,31.738,65.430,40.527,3.418
1530597924.334,103.027,83.984,-54.199,145.508,16.602
1530597924.337,42.480,52.734,-3.906,87.891,33.691
1530597924.341,-79.102,-1.953,110.352,-34.668,15.137
1530597924.345,-43.945,25.391,76.660,-3.418,8.789
1530597924.349,90.332,92.285,-39.062,133.789,35.645
1530597924.353,79.102,89.355,-29.297,117.188,26.855
1530597924.357,-62.012,22.461,94.727,-36.133,9.766
1530597924.361,-90.820,1.465,114.258,-53.711,13.672
1530597924.365,48.340,66.895,-25.879,95.215,6.348
1530597924.369,89.844,90.820,-69.336,123.047,-18.555
1530597924.373,-29.297,40.039,60.547,5.859,10.254
1530597924.376,-90.820,12.207,133.301,-46.387,12.695
1530597924.380,24.414,60.547,18.555,70.312,5.859
1530597924.384,105.469,94.238,-70.312,147.949,23.438
1530597924.388,10.254,46.387,20.020,48.340,15.137
1530597924.392,-85.938,3.418,145.996,-49.805,9.766
1530597924.396,-9.766,36.621,80.078,38.086,11.230
1530597924.400,99.609,88.379,-71.777,135.742,-10.254
1530597924.404,52.734,82.031,-28.320,75.195,10.742
1530597924.408,-76.660,10.742,109.375,-43.457,27.344
1530597924.412,-54.199,7.324,104.004,-20.020,10.742
1530597924.416,91.797,71.289,-34.180,117.676,12.695
1530597924.419,93.262,76.660,-44.922,116.211,3.906
1530597924.423,-31.738,32.715,86.426,-4.395,3.906
1530597924.427,-54.199,20.508,115.234,-26.855,26.367
1530597924.431,62.012,68.359,-10.254,95.703,35.156
1530597924.435,111.328,94.238,-61.035,135.254,15.625
1530597924.439,-10.742,41.016,50.781,21.484,24.902
1530597924.443,-97.168,-3.906,132.812,-56.641,19.531
1530597924.447,6.836,37.109,27.344,32.227,3.418
1530597924.451,99.609,86.426,-76.660,125.488,-4.395
1530597924.455,29.785,60.547,7.324,61.035,11.230
1530597924.458,-79.102,7.812,137.207,-50.293,18.066
1530597924.462,-21.973,33.691,83.984,12.695,2.930
1530597924.466,97.168,80.566,-63.965,137.207,12.695
1530597924.470,60.547,56.641,-40.527,96.191,7.324
1530597924.474,-64.941,2.930,108.887,-28.809,4.395
1530597924.478,-53.711,-0.488,114.746,-11.230,11.719
1530597924.482,81.543,67.871,-29.785,121.582,10.254
1530597924.486,95.703,79.590,-51.758,127.930,34.180
1530597924.490,-27.344,25.391,61.035,2.441,15.625
1530597924.494,-73.242,4.883,110.840,-39.551,-3.906
1530597924.498,52.734,53.223,-11.230,93.262,20.508
1530597924.501,115.723,82.520,-84.961,146.484,5.859
1530597924.505,11.719,39.551,18.555,35.156,-10.254
1530597924.509,-80.078,-15.137,99.121,-46.387,20.996
1530597924.513,14.648,19.531,4.395,52.734,40.527
1530597924.517,122.070,78.125,-104.004,142.090,17.090
1530597924.521,39.062,44.434,-37.109,59.570,14.648
1530597924.525,-85.449,-9.277,71.289,-48.340,18.066
1530597924.529,-29.785,21.484,24.902,9.277,17.090
1530597924.533,97.656,87.402,-103.516,133.789,19.043
1530597924.537,61.523,62.500,-92.773,85.449,3.418
1530597924.541,-70.801,-9.766,36.621,-50.293,14.160
1530597924.544,-57.617,3.906,51.270,-25.391,15.625
1530597924.548,83.984,65.918,-91.797,108.398,8.301
1530597924.552,97.656,69.824,-134.766,117.676,13.184
1530597924.556,-30.273,24.414,-9.277,0.977,3.418
1530597924.560,-77.637,-1.953,58.105,-47.852,12.207
1530597924.564,36.133,44.434,-78.613,58.594,19.043
1530597924.568,102.539,77.148,-164.062,119.141,5.859
1530597924.572,7.812,35.156,-42.480,34.180,9.766
1530597924.576,-94.238,-9.277,57.617,-48.828,36.133
1530597924.580,-17.578,20.020,-20.508,22.949,27.344
1530597924.583,99.121,66.406,-122.559,120.117,6.836
1530597924.587,48.828,46.875,-69.336,64.453,20.996
1530597924.591,-73.242,3.906,55.176,-51.270,25.391
1530597924.595,-41.504,16.602,32.227,-13.672,-0.488
1530597924.599,85.938,63.965,-109.375,117.188,1.953
1530597924.603,69.336,62.988,-105.469,98.633,15.625
1530597924.607,-59.082,9.277,24.902,-30.273,-4.395
1530597924.611,-79.102,-5.859,46.387,-37.109,10.254
1530597924.615,50.781,56.152,-81.543,97.656,27.344
1530597924.619,92.773,79.102,-113.770,126.953,36.133
1530597924.623,-20.996,25.879,9.277,4.883,24.902
1530597924.626,-87.891,1.465,79.590,-61.035,2.930
1530597924.630,19.531,46.387,-25.391,56.152,2.441
1530597924.634,111.816,90.332,-105.957,147.949,20.508
1530597924.638,14.160,51.270,-29.297,41.016,9.277
1530597924.642,-89.355,-3.906,74.219,-56.152,5.371
1530597924.646,-17.578,23.926,3.418,23.438,24.414
1530597924.650,88.379,76.172,-121.582,119.141,6.836
1530597924.654,49.805,63.477,-59.570,76.172,6.836
1530597924.658,-70.312,5.371,75.195,-39.062,18.555
1530597924.662,-52.734,0.488,56.641,-19.043,4.395
1530597924.666,81.543,60.059,-85.938,119.141,18.066
1530597924.669,83.984,65.430,-97.656,116.699,37.598
1530597924.673,-37.598,10.742,35.645,-13.184,19.043
1530597924.677,-69.824,-0.977,76.660,-39.062,-14.160
1530597924.681,56.641,51.270,-45.898,97.168,55.664
1530597924.685,104.980,67.383,-111.816,128.906,23.438
1530597924.689,-13.184,15.625,-3.418,4.395,-764.160
1530597924.693,-82.031,-14.648,91.797,-55.664,-818.848
1530597924.697,20.996,31.738,-5.859,58.594,-513.672
1530597924.701,105.957,67.871,-99.121,139.648,-750.000
1530597924.705,23.926,31.738,-22.461,50.781,-621.094
1530597924.708,-82.031,-8.301,94.238,-47.363,-47.363
1530597924.712,-29.297,14.160,34.180,14.160,91.797
1530597924.716,93.262,61.035,-109.375,123.047,114.258
1530597924.720,60.059,53.223,-65.430,82.520,89.355
1530597924.724,-71.777,-2.441,74.707,-38.574,546.875
1530597924.728,-68.848,-9.766,60.547,-34.180,426.758
1530597924.732,73.242,54.688,-75.195,89.844,-378.418
1530597924.736,89.844,68.848,-80.566,104.492,-187.988
1530597924.740,-44.434,9.277,49.316,-8.301,145.996
1530597924.744,-90.820,-20.508,101.074,-48.828,-207.031
1530597924.748,35.156,34.668,-19.531,76.172,-443.848
1530597924.751,102.539,63.477,-80.566,136.230,-44.434
1530597924.755,-6.348,20.020,23.438,23.438,110.840
1530597924.759,-86.426,-7.324,117.676,-45.410,369.629
1530597924.763,16.602,37.598,32.715,57.129,358.398
1530597924.767,106.934,71.777,-73.730,133.789,56.152
1530597924.771,34.180,36.133,-10.254,63.965,756.348
1530597924.775,-74.219,-7.324,112.793,-45.898,146.484
1530597924.779,-26.367,8.789,72.754,-4.883,-391.602
1530597924.783,104.492,64.453,-63.477,127.441,303.711
1530597924.787,74.707,59.082,-39.062,97.168,435.547
1530597924.790,-65.918,-4.395,97.168,-36.133,-177.734
1530597924.794,-70.801,-12.207,106.934,-26.367,-377.441
1530597924.798,70.801,45.410,-32.715,112.793,160.645
1530597924.802,101.074,62.988,-66.406,122.070,516.602
1530597924.806,-22.949,17.090,60.547,-0.977,488.281
1530597924.810,-77.637,-2.930,127.441,-47.363,324.707
1530597924.814,42.480,46.875,5.859,75.684,744.141
1530597924.818,109.863,74.707,-83.496,132.812,681.152
1530597924.822,16.602,33.691,17.090,21.484,-88.867
1530597924.826,-74.707,-4.395,111.816,-60.059,-70.312
1530597924.830,0.488,30.273,30.273,34.668,321.289
1530597924.833,104.980,70.801,-78.613,129.395,26.367
1530597924.837,41.016,44.922,-13.184,60.059,-109.375
1530597924.841,-88.379,-9.277,118.164,-45.898,330.078
1530597924.845,-48.828,-0.488,83.984,0.488,292.480
1530597924.849,85.938,53.223,-58.594,117.676,-38.086
1530597924.853,73.730,57.617,-55.176,104.004,616.211
1530597924.857,-47.852,7.324,82.031,-10.742,888.672
1530597924.861,-57.129,6.836,106.445,-17.090,822.266
1530597924.865,68.359,72.266,-34.668,98.633,392.090
1530597924.869,104.004,83.496,-68.359,120.605,-83.984
1530597924.873,-13.672,27.344,56.641,12.695,-20.020
1530597924.876,-83.008,-11.230,110.840,-41.504,188.477
1530597924.880,33.203,36.133,-1.465,68.359,55.664
1530597924.884,100.586,73.242,-83.984,136.719,-81.543
1530597924.888,6.836,40.039,0.000,47.852,319.336
1530597924.892,-86.914,-10.742,113.770,-54.688,71.289
1530597924.896,-10.254,14.160,50.293,21.973,-51.758
1530597924.900,115.723,78.125,-74.707,144.043,702.148
1530597924.904,63.477,53.711,-27.832,83.984,968.262
1530597924.908,-69.824,-16.602,101.074,-42.480,603.027
1530597924.912,-46.875,-4.883,91.309,-14.160,-183.105
1530597924.915,84.961,61.523,-52.246,116.211,56.152
1530597924.919,81.543,71.289,-66.406,107.422,685.059
1530597924.923,-46.875,14.160,78.613,-23.926,-23.926
1530597924.927,-72.266,-3.418,105.957,-40.039,-335.449
1530597924.931,53.223,47.852,-34.668,94.727,424.316
1530597924.935,95.703,61.523,-73.730,134.766,545.410
1530597924.939,-15.137,14.160,42.969,24.902,-9.277
1530597924.943,-88.379,-19.043,117.188,-41.504,-180.664
1530597924.947,19.531,30.273,15.137,70.312,650.391
1530597924.951,105.957,73.242,-82.031,145.996,961.914
1530597924.955,14.648,30.762,4.883,49.316,230.469
1530597924.958,-90.820,-18.555,137.207,-51.270,411.621
1530597924.962,-25.391,12.207,69.336,7.324,416.992
1530597924.966,87.402,58.594,-73.242,121.094,18.066
1530597924.970,49.316,42.480,-20.996,79.102,-37.109
1530597924.974,-76.660,-1.953,114.746,-42.969,4.883
1530597924.978,-62.012,1.953,100.098,-14.648,211.426
1530597924.982,79.102,60.059,-39.551,116.699,245.605
1530597924.986,91.309,72.754,-53.711,117.676,-61.523
1530597924.990,-30.273,20.508,71.289,1.953,-170.898
1530597924.994,-82.520,-4.395,118.652,-30.273,623.047
1530597924.998,31.250,45.410,-7.324,78.613,901.367
1530597925.001,98.145,71.777,-76.660,118.652,111.816
1530597925.005,-15.137,20.508,34.668,13.184,-141.113
1530597925.009,-115.723,-22.461,137.207,-62.012,592.285
1530597925.013,-23.926,18.555,47.363,44.434,628.418
1530597925.017,83.008,62.012,-56.641,140.137,135.254
1530597925.021,16.113,35.645,20.996,56.152,85.938
1530597925.025,-96.191,-2.930,132.324,-46.387,471.680
1530597925.029,-42.969,15.137,86.426,9.766,41.992
1530597925.033,80.566,47.852,-58.105,120.605,-167.969
1530597925.037,56.152,28.320,-44.434,92.285,204.102
1530597925.040,-69.336,-19.531,107.910,-19.043,548.828
1530597925.044,-70.801,-18.066,119.141,-20.996,303.711
1530597925.048,55.664,43.457,-27.344,97.656,-56.641
1530597925.052,86.914,59.570,-50.781,119.141,311.523
1530597925.056,-25.879,12.695,76.660,8.301,853.516
1530597925.060,-87.402,-11.719,127.930,-51.270,115.723
1530597925.064,34.668,42.480,15.137,66.895,-226.074
1530597925.068,105.957,70.801,-56.641,138.184,250.977
1530597925.072,1.953,22.461,47.852,35.156,461.914
1530597925.076,-93.750,-24.414,143.555,-58.594,222.168
1530597925.080,-9.277,10.254,47.852,22.461,-199.219
1530597925.083,99.609,63.477,-65.430,129.883,285.156
1530597925.087,29.785,31.738,2.930,64.453,973.145
1530597925.091,-90.820,-15.137,138.184,-57.129,634.277
1530597925.095,-34.180,14.160,107.910,-4.395,-45.898
1530597925.099,103.516,71.777,-38.086,136.230,652.832
1530597925.103,73.242,44.922,-38.574,101.074,649.902
1530597925.107,-63.965,-10.254,102.539,-35.645,-125.488
1530597925.111,-72.266,-0.488,141.113,-25.391,46.875
1530597925.115,54.688,47.852,-7.324,112.305,336.426
1530597925.119,91.309,59.082,-68.359,124.512,189.941
1530597925.122,-22.949,5.371,54.199,-2.441,-139.648
1530597925.126,-87.891,-19.531,139.648,-47.852,-161.133
1530597925.130,31.738,38.574,33.691,74.219,556.641
1530597925.134,100.586,72.754,-63.477,137.695,806.641
1530597925.138,7.812,38.086,27.344,35.156,421.387
1530597925.142,-79.102,-1.465,149.414,-49.316,470.215
1530597925.146,-8.789,14.648,77.148,41.504,886.230
1530597925.150,96.680,64.941,-57.617,127.441,356.934
1530597925.154,37.109,43.457,-7.324,59.570,-203.125
1530597925.158,-91.797,-18.555,126.953,-58.105,98.145
1530597925.162,-55.176,4.883,98.145,-24.414,48.340
1530597925.165,80.078,62.012,-38.086,103.516,-252.441
1530597925.169,68.359,53.711,-38.574,91.797,75.195
1530597925.173,-57.129,0.488,90.332,-31.738,418.457
1530597925.177,-82.031,-18.066,127.441,-56.152,-81.543
1530597925.181,44.922,36.133,-1.953,79.102,403.809
1530597925.185,95.215,65.430,-60.547,125.488,717.285
1530597925.189,-12.207,26.855,59.082,21.484,709.961
1530597925.193,-98.145,-21.973,137.695,-50.781,586.426
1530597925.197,0.488,12.207,28.320,37.598,-240.234
1530597925.201,109.375,69.336,-55.176,129.883,-73.242
1530597925.205,14.160,29.297,25.391,46.387,442.383
1530597925.208,-103.027,-18.066,131.348,-62.500,14.648
1530597925.212,-23.926,17.090,79.590,14.648,-386.230
1530597925.216,93.750,63.965,-59.570,131.348,-63.477
1530597925.220,47.363,37.598,-38.574,86.914,314.453
1530597925.224,-74.219,-15.625,115.723,-35.156,106.934
1530597925.228,-51.270,-0.977,122.559,-7.812,291.504
1530597925.232,79.102,57.617,-22.949,127.441,720.215
1530597925.236,85.938,58.594,-36.133,132.812,920.410
1530597925.240,-36.133,-2.930,85.449,-0.977,40.527
1530597925.244,-77.637,-20.508,135.742,-43.457,-326.660
1530597925.247,49.316,39.551,12.695,96.680,498.047
1530597925.251,105.469,67.871,-59.570,138.184,323.730
1530597925.255,-13.672,15.137,52.734,23.926,-235.840
1530597925.259,-96.191,-20.020,146.973,-50.293,-421.387
1530597925.263,2.441,25.391,47.852,51.758,291.504
1530597925.267,101.074,63.965,-66.406,144.531,335.449
1530597925.271,20.020,29.785,1.465,51.758,-255.859
1530597925.275,-94.238,-19.043,124.023,-54.688,336.914
1530597925.279,-23.926,9.766,92.773,19.043,930.176
1530597925.283,110.840,71.777,-42.480,137.695,660.645
1530597925.287,62.988,46.875,-25.879,83.496,-24.902
1530597925.290,-78.613,-18.066,109.863,-43.945,-127.930
1530597925.294,-54.688,-11.230,114.258,-29.785,280.762
1530597925.298,92.285,51.758,-20.508,93.262,13.184
1530597925.302,116.699,71.777,-45.898,108.887,19.043
1530597925.306,-16.602,12.207,66.895,-9.766,422.852
1530597925.310,-71.777,-28.320,117.676,-42.969,176.758
1530597925.314,55.664,26.367,0.977,83.008,-84.473
1530597925.318,109.863,62.012,-69.336,120.605,53.711
1530597925.322,1.465,18.555,41.504,35.156,560.547
1530597925.326,-81.055,-21.484,135.254,-30.273,926.270
1530597925.329,-7.812,15.137,39.062,34.668,314.453
1530597925.333,89.355,65.918,-65.918,125.000,-303.711
1530597925.337,34.180,41.992,11.230,69.824,-9.766
1530597925.341,-83.008,-13.672,138.672,-33.203,292.969
1530597925.345,-45.898,0.977,91.797,4.395,-237.305
1530597925.349,91.309,59.570,-52.734,118.164,-182.617
1530597925.353,76.660,53.711,-39.551,104.004,532.227
1530597925.357,-54.199,-9.766,97.168,-23.926,202.637
1530597925.361,-63.477,-1.953,114.746,-27.832,-19.531
1530597925.365,60.547,49.316,-27.832,101.074,254.395
1530597925.369,91.797,47.852,-61.035,125.000,739.746
1530597925.372,-28.320,5.859,61.035,4.395,529.297
1530597925.376,-87.402,-9.277,127.930,-49.316,-325.195
1530597925.380,35.156,41.016,24.902,68.848,-0.488
1530597925.384,107.910,64.941,-59.570,135.254,544.922
1530597925.388,4.395,18.555,24.414,29.785,68.359
1530597925.392,-87.891,-16.113,134.766,-68.848,-434.082
1530597925.396,2.441,36.133,68.359,30.273,-114.258
1530597925.400,109.863,76.172,-58.594,144.043,458.496
1530597925.404,43.457,29.785,-10.254,60.547,25.879
1530597925.408,-80.566,-21.484,125.977,-64.453,-407.227
1530597925.412,-45.410,0.000,99.609,-12.695,-140.137
1530597925.415,88.379,57.617,-54.199,122.070,486.328
1530597925.419,81.543,56.152,-54.688,101.074,716.309
1530597925.423,-44.434,1.465,89.844,-17.578,157.227
1530597925.427,-76.660,-9.766,120.605,-35.156,-84.961
1530597925.431,52.734,57.617,-10.254,98.145,763.672
1530597925.435,108.887,77.637,-52.734,129.883,349.121
1530597925.439,-11.230,15.625,65.430,0.977,-183.105
1530597925.443,-87.891,-20.508,140.625,-63.965,68.848
1530597925.447,13.184,21.484,24.414,51.270,95.703
1530597925.451,104.492,62.012,-66.895,128.418,-90.820
1530597925.454,26.855,38.086,20.508,50.781,-132.324
1530597925.458,-96.191,-20.996,123.047,-51.758,345.215
1530597925.462,-31.250,2.441,60.059,23.438,731.445
1530597925.466,92.773,68.848,-56.641,138.184,563.965
1530597925.470,46.875,50.293,-7.812,67.383,207.520
1530597925.474,-70.801,-9.766,121.094,-49.805,653.809
1530597925.478,-56.641,-12.207,93.262,-24.414,755.859
1530597925.482,75.195,50.293,-55.664,99.121,-77.148
1530597925.486,83.008,58.594,-63.477,104.004,-50.781
1530597925.490,-52.246,-3.906,68.359,-12.695,277.344
1530597925.494,-81.055,-16.602,114.258,-47.852,-39.062
1530597925.497,49.316,40.039,-18.555,88.867,-197.266
1530597925.501,104.004,63.477,-87.402,137.207,-33.691
1530597925.505,-8.789,16.113,22.949,18.066,168.945
1530597925.509,-83.008,-17.578,109.863,-49.316,463.379
1530597925.513,27.832,34.180,10.742,59.082,431.641
1530597925.517,114.258,69.824,-103.027,140.137,139.160
1530597925.521,25.391,24.902,-37.109,55.664,756.836
1530597925.525,-91.797,-26.367,77.637,-55.176,220.215
1530597925.529,-20.996,-1.953,15.625,8.301,-510.742
1530597925.533,110.840,59.082,-121.582,132.324,173.340
1530597925.537,71.777,44.922,-92.773,91.309,702.637
1530597925.540,-50.293,-19.043,34.180,-36.133,-130.859
1530597925.544,-59.082,-18.066,31.738,-27.832,-406.250
1530597925.548,62.500,37.598,-113.770,104.980,207.520
1530597925.552,89.844,42.480,-143.555,117.676,246.094
1530597925.556,-23.926,-7.812,-17.578,-3.418,463.867
1530597925.560,-59.082,-23.926,46.875,-40.039,335.449
1530597925.564,76.172,27.344,-66.895,97.656,586.426
1530597925.568,111.816,57.129,-142.090,143.555,740.234
1530597925.572,2.930,19.531,-32.227,25.879,-126.465
1530597925.576,-83.496,-20.508,65.918,-42.480,-185.059
1530597925.579,-1.465,11.719,-31.250,47.363,271.973
1530597925.583,98.633,53.711,-151.367,129.395,-17.578
1530597925.587,51.270,27.832,-73.242,63.965,-255.371
1530597925.591,-83.496,-26.855,56.641,-44.434,24.902
1530597925.595,-57.617,-11.230,12.207,4.883,330.078
1530597925.599,92.285,57.617,-118.652,128.418,-81.543
1530597925.603,62.012,45.898,-95.215,93.262,328.613
1530597925.607,-71.289,-13.672,41.504,-36.621,845.703
1530597925.611,-62.500,-13.672,61.523,-25.391,835.449
1530597925.615,86.914,42.480,-78.125,108.887,46.387
1530597925.619,91.309,51.758,-118.164,115.723,-251.465
1530597925.622,-41.016,-7.812,3.906,-2.930,19.043
1530597925.626,-100.586,-42.480,78.125,-43.945,-118.652
1530597925.630,-2.441,4.883,-23.926,57.129,-46.875
1530597925.634,75.195,47.363,-104.980,119.629,-132.812
1530597925.638,-6.348,11.719,-11.230,31.738,162.109
1530597925.642,-101.074,-35.156,86.426,-62.500,-22.461
1530597925.646,-28.320,-6.836,11.230,24.902,-301.270
1530597925.650,91.309,43.945,-99.121,143.066,558.594
1530597925.654,44.434,28.320,-44.434,81.543,986.328
1530597925.658,-96.680,-35.645,73.242,-52.246,572.754
1530597925.661,-70.801,-29.297,40.039,-20.996,-303.711
1530597925.665,61.035,36.133,-93.262,114.746,-243.652
1530597925.669,56.152,35.645,-82.520,104.492,486.328
1530597925.673,-59.570,-16.602,52.734,-32.227,26.855
1530597925.677,-96.680,-24.414,81.543,-56.641,-628.906
1530597925.681,29.297,29.297,-58.105,84.473,-132.812
1530597925.685,87.891,55.176,-103.516,136.230,370.117
1530597925.689,-37.109,4.395,20.996,15.137,3.418
1530597925.693,-109.375,-33.203,95.703,-54.688,-325.195
1530597925.697,18.555,15.137,-5.371,66.406,283.203
1530597925.701,111.816,53.711,-92.773,144.043,972.168
1530597925.704,-3.906,14.160,-12.695,36.133,224.609
1530597925.708,-112.305,-34.180,100.098,-64.453,-109.375
1530597925.712,-14.648,-1.953,39.062,18.066,447.266
1530597925.716,124.023,62.012,-90.332,127.930,160.645
1530597925.720,45.410,48.340,-48.340,86.914,-311.035
1530597925.724,-94.727,-17.090,80.566,-42.969,-248.047
1530597925.728,-71.289,-26.855,66.895,-24.902,207.520
1530597925.732,71.777,33.203,-71.289,119.629,143.066
1530597925.736,88.379,43.457,-74.219,97.656,-309.570
1530597925.740,-55.664,-16.602,71.289,-28.320,-288.574
1530597925.744,-87.891,-23.926,119.141,-29.785,604.980
1530597925.747,54.688,35.645,-9.766,96.680,674.316
1530597925.751,88.379,48.828,-71.289,117.676,-53.711
1530597925.755,-8.789,5.859,49.805,4.395,-55.176
1530597925.759,-82.520,-24.902,146.973,-48.340,408.203
1530597925.763,-0.977,7.324,41.504,58.105,154.785
1530597925.767,101.562,49.805,-71.289,142.578,274.902
1530597925.771,20.508,21.484,-2.441,60.059,362.305
1530597925.775,-84.961,-17.578,129.395,-39.551,148.926
1530597925.779,-11.230,7.324,84.961,19.531,-135.742
1530597925.783,86.426,48.828,-50.293,125.000,-288.574
1530597925.786,64.453,43.945,-13.184,103.027,-8.301
1530597925.790,-42.480,-2.930,124.512,-17.578,448.242
1530597925.794,-70.801,-6.836,108.398,-24.414,201.660
1530597925.798,48.340,48.340,-43.945,103.516,-354.980
1530597925.802,79.590,51.758,-50.781,110.352,101.074
1530597925.806,-21.973,-3.906,87.402,5.371,828.613
1530597925.810,-83.496,-15.625,148.926,-34.180,-19.043
1530597925.814,19.531,32.227,27.832,77.637,-499.512
1530597925.818,108.398,61.523,-62.012,143.555,172.363
1530597925.822,14.160,22.461,38.574,29.785,172.852
1530597925.826,-93.750,-17.578,154.785,-56.152,105.469
1530597925.829,-11.719,23.438,70.801,45.410,-80.078
1530597925.833,87.891,59.570,-52.734,135.254,189.941
1530597925.837,49.316,31.738,9.766,72.754,713.379
1530597925.841,-75.195,-16.602,142.090,-39.551,347.168
1530597925.845,-54.199,9.766,101.074,-9.766,-125.488
1530597925.849,72.266,78.125,-42.969,129.395,622.070
1530597925.853,48.340,59.570,-21.973,98.145,588.379
1530597925.857,-63.477,-3.906,129.395,-42.480,-500.000
1530597925.861,-37.598,7.324,152.832,-19.043,-223.633
1530597925.865,59.082,58.594,3.418,118.164,301.758
1530597925.868,72.266,56.641,-41.016,124.023,-123.535
1530597925.872,-36.621,8.789,89.355,-12.695,-398.438
1530597925.876,-80.078,-6.348,162.109,-55.664,-323.242
1530597925.880,34.668,44.434,39.062,70.801,158.691
1530597925.884,81.543,71.289,-34.668,129.395,569.336
1530597925.888,-0.488,37.109,73.242,36.621,482.910
1530597925.892,-105.957,-2.930,183.105,-49.316,152.832
1530597925.896,-20.020,19.043,101.074,27.344,692.871
1530597925.900,118.164,67.871,-33.691,121.094,400.391
1530597925.904,41.992,50.781,28.809,64.941,-356.445
1530597925.908,-70.801,-6.836,173.340,-53.711,-324.707
1530597925.911,-55.664,3.418,148.438,-9.766,-143.555
1530597925.915,59.570,60.547,4.395,121.582,-161.133
1530597925.919,67.871,51.758,13.184,91.797,-184.082
1530597925.923,-62.988,-3.906,148.926,-35.156,131.348
1530597925.927,-66.895,-2.930,176.270,-35.645,10.254
1530597925.931,70.312,58.594,50.781,113.770,216.797
1530597925.935,86.914,72.266,14.648,120.117,280.273
1530597925.939,-30.762,23.438,139.160,-3.418,602.051
1530597925.943,-108.398,-12.207,208.008,-50.293,549.805
1530597925.947,8.301,28.809,101.562,52.246,-399.414
1530597925.951,105.957,72.266,16.602,132.324,-208.008
1530597925.954,1.465,34.668,101.562,42.969,373.047
1530597925.958,-98.633,-14.648,221.191,-60.547,-74.219
1530597925.962,-7.324,16.602,155.762,18.066,-507.324
1530597925.966,95.215,70.801,18.066,129.395,-50.293
1530597925.970,22.949,49.316,59.570,69.824,159.180
1530597925.974,-94.238,-1.465,196.289,-49.805,-170.410
1530597925.978,-60.547,15.625,185.059,-20.508,300.293
1530597925.982,68.359,67.383,42.969,109.375,663.086
1530597925.986,34.668,62.500,37.109,98.633,840.820
1530597925.990,-75.195,14.648,166.504,-53.711,147.461
1530597925.993,-87.891,5.371,199.707,-79.102,-410.156
1530597925.997,36.621,62.500,73.730,70.801,257.324
1530597926.001,62.500,84.961,17.578,97.168,390.137
1530597926.005,-69.336,30.273,129.883,-40.527,-311.035
1530597926.009,-146.484,-12.207,217.773,-102.051,-432.129
1530597926.013,-47.852,30.273,111.328,15.137,147.949
1530597926.017,46.387,75.684,4.395,91.309,244.141
1530597926.021,-38.086,36.621,90.332,-8.789,-190.918
1530597926.025,-158.203,-19.043,223.145,-104.004,273.926
1530597926.029,-91.797,2.441,169.434,-27.832,840.332
1530597926.033,29.297,46.875,13.672,76.172,699.219
1530597926.036,-17.090,32.715,45.410,31.250,-62.500
1530597926.040,-138.672,-15.137,199.707,-78.125,-284.180
1530597926.044,-99.609,-21.973,187.988,-55.664,275.879
1530597926.048,11.719,24.902,40.039,72.754,36.621
1530597926.052,12.695,32.715,26.855,86.426,-304.199
1530597926.056,-91.309,-25.391,153.809,-15.625,170.898
1530597926.060,-110.352,-45.898,200.684,-44.922,436.035
1530597926.064,23.926,9.277,58.105,75.684,-236.328
1530597926.068,59.082,33.203,0.977,137.207,-408.203
1530597926.072,-33.203,-10.254,124.512,41.504,532.715
1530597926.076,-87.891,-40.527,201.660,-35.645,958.496
1530597926.079,-16.113,1.953,102.539,55.664,73.730
1530597926.083,87.891,40.527,-5.859,155.273,-336.914
1530597926.087,24.414,2.930,59.082,89.355,-5.371
1530597926.091,-83.496,-40.039,186.035,-8.789,32.715
1530597926.095,-14.160,-15.625,143.555,45.898,-261.719
1530597926.099,106.934,36.621,8.789,165.039,-333.496
1530597926.103,62.988,19.531,28.809,137.695,123.047
1530597926.107,-56.641,-39.062,153.320,2.930,23.438
1530597926.111,-42.480,-30.762,156.250,2.441,-184.570
1530597926.115,84.961,37.109,10.742,144.531,363.770
1530597926.118,88.867,52.734,-17.578,166.504,788.086
1530597926.122,-26.367,-3.418,113.770,31.250,509.766
1530597926.126,-68.848,-39.062,164.062,-35.156,-382.812
1530597926.130,52.734,5.371,44.922,96.191,-232.422
1530597926.134,115.234,48.828,-33.691,170.898,672.852
1530597926.138,24.414,6.348,59.082,64.941,250.977
1530597926.142,-40.527,-31.738,159.180,-18.066,-601.074
1530597926.146,38.574,9.277,88.867,77.148,-279.297
1530597926.150,97.656,49.316,-35.645,188.965,401.855
1530597926.154,32.227,22.461,15.137,106.445,48.828
1530597926.158,-45.410,-28.320,148.926,-20.508,-465.332
1530597926.161,-21.973,-7.812,116.211,34.668,-274.414
1530597926.165,98.145,53.223,-25.879,165.527,457.520
1530597926.169,104.492,44.434,-20.996,138.672,633.789
1530597926.173,-39.062,-11.230,113.281,8.301,284.668
1530597926.177,-57.617,-14.160,135.742,-7.812,-0.977
1530597926.181,96.191,49.316,-3.906,123.047,659.668
1530597926.185,114.746,61.523,-46.387,157.715,333.008
1530597926.189,-10.254,-2.441,69.336,17.578,-229.492
1530597926.193,-73.730,-20.020,148.926,-33.691,-19.043
1530597926.197,24.414,31.250,45.898,99.121,225.586
1530597926.200,113.770,60.059,-64.941,148.438,11.230
1530597926.204,40.039,28.320,16.113,45.410,-188.477
1530597926.208,-84.961,-13.184,142.090,-29.297,104.980
1530597926.212,-2.930,19.531,72.266,52.246,559.570
1530597926.216,107.422,65.430,-58.594,148.438,311.523
1530597926.220,68.359,40.039,-6.348,82.520,-261.719
1530597926.224,-70.801,-9.766,135.742,-21.973,474.609
1530597926.228,-55.664,2.441,110.840,24.414,825.195
1530597926.232,111.328,66.406,-33.691,133.789,107.910
1530597926.236,73.242,64.941,-31.250,103.516,-91.797
1530597926.240,-67.383,0.000,98.633,-10.254,229.492
1530597926.243,-84.961,-11.719,124.512,-21.973,-133.301
1530597926.247,57.129,52.246,-5.371,110.352,-267.090
1530597926.251,110.840,78.613,-62.012,135.742,-4.395
1530597926.255,-27.344,36.621,49.805,31.250,170.898
1530597926.259,-95.703,-5.859,144.531,-21.484,288.086
1530597926.263,24.902,31.250,41.504,74.707,412.598
1530597926.267,115.723,74.707,-64.941,148.438,575.195
1530597926.271,52.246,45.898,13.184,72.754,825.195
1530597926.275,-76.172,3.418,134.766,-26.855,16.602
1530597926.279,-18.066,25.391,83.984,29.785,-474.121
1530597926.283,98.145,71.289,-50.781,134.766,62.988
1530597926.286,56.641,56.641,-19.043,91.309,385.742
1530597926.290,-50.293,3.906,119.629,-23.438,-24.414
1530597926.294,-62.012,0.977,118.652,-18.066,-302.734
1530597926.298,81.055,60.059,-27.832,118.164,159.668
1530597926.302,122.559,71.289,-42.969,132.812,66.406
1530597926.306,-39.551,16.602,95.703,11.719,279.785
1530597926.310,-86.914,3.906,136.719,-28.320,235.352
1530597926.314,46.875,52.246,-3.906,89.844,485.352
1530597926.318,104.492,71.289,-80.078,144.043,660.645
1530597926.322,10.254,32.227,40.527,20.508,-198.730
1530597926.325,-71.777,-7.324,145.020,-62.500,-288.086
1530597926.329,24.414,26.855,50.293,35.156,222.656
1530597926.333,133.789,77.148,-52.734,137.695,-10.254
1530597926.337,49.805,48.340,21.973,53.711,-486.816
1530597926.341,-76.660,-2.930,136.230,-50.293,-361.816
1530597926.345,-11.230,23.438,89.844,34.668,403.320
1530597926.349,120.117,80.566,-33.691,143.555,177.246
1530597926.353,83.496,67.383,-8.301,108.398,149.902
1530597926.357,-61.035,10.742,118.164,-14.648,481.934
1530597926.361,-69.824,7.812,126.465,-12.695,840.820
1530597926.365,73.242,63.965,-10.742,115.234,174.316
1530597926.368,114.746,77.637,-36.621,114.258,-568.359
1530597926.372,-50.781,22.461,87.402,-1.953,-122.559
1530597926.376,-110.352,-0.977,143.066,-32.715,-58.105
1530597926.380,37.109,48.340,19.043,77.148,-301.270
1530597926.384,109.863,75.684,-64.453,132.324,-260.254
1530597926.388,23.438,38.086,45.410,43.457,177.246
1530597926.392,-74.219,-4.395,152.344,-43.457,-78.613
1530597926.396,11.230,31.250,57.129,44.922,-410.156
1530597926.400,107.910,85.938,-62.988,153.320,496.094
1530597926.404,46.875,49.316,3.418,85.449,967.285
1530597926.408,-74.707,-7.324,125.488,-36.621,512.207
1530597926.411,-50.293,13.672,89.355,-10.254,-274.902
1530597926.415,76.660,72.754,-41.504,118.652,-178.711
1530597926.419,77.637,68.359,-25.391,107.910,333.984
1530597926.423,-64.941,13.184,111.328,-18.066,-36.133
1530597926.427,-53.711,16.602,129.395,-28.320,-537.109
1530597926.431,88.379,66.895,-15.625,93.262,-348.633
1530597926.435,77.148,71.777,-52.734,126.953,155.273
1530597926.439,-36.133,22.461,74.219,1.953,-5.859
1530597926.443,-83.008,-3.906,144.043,-57.617,-270.508
1530597926.447,21.484,46.875,31.738,75.195,298.828
1530597926.450,89.355,83.496,-62.500,145.020,938.965
1530597926.454,3.418,41.504,22.949,37.598,223.145
1530597926.458,-85.938,-9.277,139.160,-68.848,-297.363
1530597926.462,-38.086,21.484,75.684,16.602,293.945
1530597926.466,96.680,84.961,-60.059,137.207,210.449
1530597926.470,61.035,65.918,-17.578,74.707,-319.824
1530597926.474,-93.262,4.883,124.512,-61.035,-379.395
1530597926.478,-93.750,10.742,107.910,-28.320,152.344
1530597926.482,66.895,75.195,-41.992,107.910,214.355
1530597926.486,96.191,77.637,-40.527,90.820,-291.016
1530597926.490,-76.660,13.672,98.633,-33.203,-295.410
1530597926.493,-102.051,-1.953,132.324,-30.273,584.473
1530597926.497,76.172,59.082,-6.836,90.820,600.098
1530597926.501,92.285,84.473,-62.988,107.910,-233.887
1530597926.505,-57.129,30.762,57.129,6.836,-75.684
1530597926.509,-81.543,0.488,131.836,-47.363,609.863
1530597926.513,45.410,50.293,11.719,42.969,67.871
1530597926.517,103.027,91.309,-83.496,108.398,-99.609
1530597926.521,26.855,61.035,0.977,58.105,718.262
1530597926.525,-71.289,2.441,111.816,-34.180,410.156
1530597926.529,-22.949,15.625,48.828,3.906,-210.938
1530597926.532,75.684,71.289,-88.867,109.863,-67.871
1530597926.536,29.297,53.711,-56.641,86.914,177.734
1530597926.540,-74.707,-7.812,72.754,-30.273,476.562
1530597926.544,-60.547,-5.859,58.105,-33.203,496.094
1530597926.548,49.805,52.246,-87.402,88.379,-74.707
1530597926.552,76.172,58.105,-101.562,104.492,46.875
1530597926.556,-51.758,1.465,29.785,8.789,836.426
1530597926.560,-103.027,-17.090,73.242,-46.387,211.914
1530597926.564,1.465,39.062,-57.129,48.828,-343.750
1530597926.568,63.477,67.871,-119.629,109.375,154.785
1530597926.572,-19.531,20.996,-4.883,5.859,323.242
1530597926.575,-120.605,-19.043,89.355,-85.449,206.055
1530597926.579,-27.832,20.020,-10.254,11.230,182.617
1530597926.583,68.359,64.941,-111.816,114.746,338.867
1530597926.587,-16.602,33.203,-30.273,28.809,781.738
1530597926.591,-127.441,-16.113,86.914,-93.262,251.953
1530597926.595,-65.918,7.324,50.293,-32.227,-172.363
1530597926.599,41.016,64.453,-58.105,113.281,687.988
1530597926.603,4.395,49.316,-20.996,66.406,661.133
1530597926.607,-110.352,-9.277,117.676,-88.379,-294.434
1530597926.611,-105.957,-7.324,133.301,-61.035,-189.941
1530597926.615,13.184,53.223,-9.277,79.102,455.078
1530597926.618,30.762,64.941,-108.398,83.008,346.680
1530597926.622,-61.035,12.695,-125.977,-30.273,-149.902
1530597926.626,-125.000,-14.160,-182.129,-74.219,-165.039
1530597926.630,-16.602,35.645,-361.816,46.875,274.902
1530597926.634,68.359,74.707,-463.867,113.770,727.539
1530597926.638,-36.133,35.156,-354.492,8.789,676.270
1530597926.642,-106.445,-8.789,-201.660,-75.195,441.895
1530597926.646,-14.648,32.227,-226.562,34.180,787.109
1530597926.650,64.941,79.590,-291.992,124.512,403.320
1530597926.654,-1.953,47.363,-201.172,35.645,-153.320
1530597926.657,-111.328,-1.953,-39.551,-62.988,-122.070
1530597926.661,-48.828,17.578,-37.109,-10.254,-142.578
1530597926.665,76.660,67.383,-157.227,118.652,-236.328
1530597926.669,57.129,61.035,-129.883,109.863,-140.625
1530597926.673,-69.824,11.719,30.762,-17.090,50.293
1530597926.677,-64.941,11.230,79.102,-23.438,-41.992
1530597926.681,83.496,68.848,-32.227,123.535,376.465
1530597926.685,97.168,75.684,-77.148,143.066,322.266
1530597926.689,-39.551,21.484,28.320,12.207,527.832
1530597926.693,-91.797,-7.812,92.773,-44.434,780.762
1530597926.697,34.668,41.504,-8.789,47.363,-263.184
1530597926.700,101.562,80.566,-68.359,126.953,-286.621
1530597926.704,20.996,45.410,43.945,58.594,339.355
1530597926.708,-71.777,0.488,158.203,-55.664,-195.312
1530597926.712,-5.371,29.785,90.332,20.996,-650.391
1530597926.716,110.840,80.566,-20.508,148.438,-157.227
1530597926.720,66.406,62.012,37.109,100.586,198.242
1530597926.724,-41.016,5.859,187.500,-22.461,-359.375
1530597926.728,-42.480,8.789,190.918,20.020,195.312
1530597926.732,93.262,66.895,73.242,155.762,766.602
1530597926.736,120.605,68.359,97.168,136.230,809.570
1530597926.739,-26.367,10.742,248.047,-9.277,21.484
1530597926.743,-70.801,-2.441,288.574,-26.855,-619.629
1530597926.747,74.219,50.293,150.879,118.164,-41.504
1530597926.751,129.395,68.359,111.816,157.715,496.094
1530597926.755,1.465,32.227,238.770,28.809,-238.281
1530597926.759,-82.031,-5.859,315.430,-52.734,-745.117
1530597926.763,27.344,31.250,218.262,67.383,-76.660
1530597926.767,137.207,77.637,112.793,158.691,131.836
1530597926.771,41.016,37.109,180.664,46.387,-283.203
1530597926.775,-64.453,-11.230,285.645,-38.086,82.520
1530597926.779,-5.859,27.832,229.980,54.199,731.445
1530597926.782,109.375,73.242,122.559,152.832,688.477
1530597926.786,83.984,44.922,160.645,104.492,-202.637
1530597926.790,-58.105,-1.953,296.387,-23.926,-437.012
1530597926.794,-36.621,13.184,305.664,15.137,182.129
1530597926.798,98.145,73.730,179.688,128.906,-125.977
1530597926.802,117.188,83.984,176.270,121.094,-459.961
1530597926.806,-12.207,25.879,309.570,18.555,-126.465
1530597926.810,-41.016,8.789,357.422,-17.090,113.281
1530597926.814,58.594,62.012,239.258,102.051,-262.695
1530597926.818,104.980,87.402,183.105,146.973,-423.340
1530597926.822,26.367,47.852,324.707,48.340,317.383
1530597926.825,-48.828,10.254,444.824,-21.484,973.145
1530597926.829,14.160,52.246,348.145,66.406,254.883
1530597926.833,115.234,90.332,241.211,136.230,-495.117
1530597926.837,55.664,52.734,325.684,62.500,-314.453
1530597926.841,-92.285,11.230,485.840,-20.508,-214.844
1530597926.845,-11.230,38.574,467.773,31.250,-397.461
1530597926.849,139.648,94.238,328.613,145.020,-489.746
1530597926.853,72.754,80.078,355.957,107.422,-151.855
1530597926.857,-51.270,19.043,478.516,-12.207,-236.816
1530597926.861,-58.105,16.113,474.121,10.742,-649.414
1530597926.864,81.055,73.730,347.656,123.535,-68.359
1530597926.868,109.375,80.078,312.500,123.535,710.938
1530597926.872,-23.926,24.414,404.297,14.160,407.715
1530597926.876,-72.754,4.883,437.988,-28.809,-389.160
1530597926.880,78.125,66.895,303.223,82.520,-424.805
1530597926.884,118.164,91.309,210.938,157.715,443.359
1530597926.888,-11.230,34.180,298.340,39.551,291.992
1530597926.892,-62.988,-2.441,383.789,-52.734,-628.418
1530597926.896,40.527,43.457,292.480,48.828,-489.746
1530597926.900,116.211,90.820,201.660,156.738,324.707
1530597926.904,25.391,58.105,270.020,83.984,34.668
1530597926.907,-52.734,8.301,388.672,-41.016,-582.031
1530597926.911,-4.395,19.043,365.234,17.578,-408.203
1530597926.915,95.215,71.777,245.117,148.926,490.723
1530597926.919,68.848,65.918,268.555,107.422,506.836
1530597926.923,-37.598,12.695,388.672,-25.391,-8.789
1530597926.927,-31.738,8.789,398.926,-11.230,-33.203
1530597926.931,62.988,62.500,271.973,125.488,657.227
1530597926.935,85.938,76.660,216.797,128.906,6.836
1530597926.939,-43.457,23.438,322.754,0.977,-383.789
1530597926.943,-92.285,-4.395,400.879,-50.781,-23.438
1530597926.947,52.246,47.363,304.199,68.848,-303.711
1530597926.950,101.562,89.355,229.004,140.137,-503.906
1530597926.954,-10.254,48.828,324.219,55.176,-471.191
1530597926.958,-91.797,-2.441,431.641,-27.344,49.805
1530597926.962,-4.395,25.391,364.746,56.641,477.051
1530597926.966,137.695,82.031,251.953,157.227,228.027
1530597926.970,69.336,61.523,305.176,75.195,-147.461
1530597926.974,-79.102,0.000,431.152,-34.180,427.734
1530597926.978,-34.180,4.395,399.414,14.648,554.688
1530597926.982,95.703,61.035,270.020,135.254,216.797
1530597926.986,83.008,61.035,278.809,117.188,35.645
1530597926.989,-38.086,6.348,403.320,-11.719,-2.930
1530597926.993,-50.781,4.883,436.035,-20.996,-248.535
1530597926.997,82.031,68.848,321.289,110.840,-437.988
1530597927.001,109.863,78.125,271.973,137.695,-169.922
1530597927.005,-17.090,28.320,367.188,21.973,102.051
1530597927.009,-78.125,4.395,445.801,-36.133,371.582
1530597927.013,28.320,47.852,344.238,79.590,184.570
1530597927.017,108.887,79.102,242.188,138.672,-115.234
1530597927.021,28.809,38.086,340.820,53.711,707.031
1530597927.025,-73.730,-3.418,478.516,-39.062,44.434
1530597927.029,-6.348,24.414,431.641,16.602,-1000.000
1530597927.032,104.004,70.312,314.941,133.301,-761.230
1530597927.036,54.688,44.434,340.332,90.820,73.242
1530597927.040,-62.012,-11.230,461.426,-36.133,122.559
1530597927.044,-56.641,1.465,460.938,-18.066,-279.297
1530597927.048,74.707,65.918,338.379,118.652,160.156
1530597927.052,82.520,73.730,325.684,123.535,159.668
1530597927.056,-43.457,10.742,437.012,-6.836,351.562
1530597927.060,-74.219,-8.789,469.727,-42.480,322.266
1530597927.064,48.340,44.434,344.727,86.426,507.324
1530597927.068,105.469,69.824,291.504,131.836,645.996
1530597927.071,3.906,36.621,408.203,15.137,-276.367
1530597927.075,-80.078,-7.812,491.211,-63.965,-269.043
1530597927.079,21.973,33.691,394.043,45.898,37.109
1530597927.083,120.605,91.797,304.199,144.043,-130.371
1530597927.087,44.922,57.617,382.324,62.988,-168.945
1530597927.091,-62.500,-4.395,488.770,-41.016,-322.754
1530597927.095,-9.277,16.602,426.270,25.879,78.613
1530597927.099,110.840,73.730,303.711,143.555,344.727
1530597927.103,72.754,62.500,339.355,100.098,321.289
1530597927.107,-61.523,3.418,454.102,-21.973,373.535
1530597927.111,-49.316,5.371,467.773,4.883,750.000
1530597927.114,89.355,70.801,332.031,124.023,332.031
1530597927.118,97.168,73.730,284.180,109.375,-293.457
1530597927.122,-33.691,17.090,412.109,-10.254,-381.836
1530597927.126,-76.660,3.906,469.238,-38.086,-350.098
1530597927.130,45.410,48.340,352.539,80.078,-289.062
1530597927.134,107.910,71.289,267.090,118.652,-286.133
1530597927.138,-0.488,31.250,355.469,16.113,22.461
1530597927.142,-89.355,-6.348,461.426,-53.711,-206.543
1530597927.146,3.418,28.320,386.230,35.645,-594.727
1530597927.150,111.816,72.266,279.785,136.230,323.242
1530597927.154,34.180,45.898,334.961,63.477,-966.797
1530597927.157,-82.520,-5.859,440.918,-51.270,542.480
1530597927.161,-26.367,15.625,410.156,2.441,-647.949
1530597927.165,99.121,69.336,287.109,123.535,-491.699
1530597927.169,71.289,60.547,291.504,94.727,475.586
1530597927.173,-59.570,2.930,404.297,-30.273,-153.809
1530597927.177,-50.781,0.977,411.621,-30.273,-761.230
1530597927.181,77.637,62.500,308.594,104.980,27.344
1530597927.185,100.586,77.637,283.203,123.047,307.129
1530597927.189,-14.160,30.762,377.441,1.953,-422.852
1530597927.193,-69.824,-3.418,432.129,-47.363,-408.691
1530597927.196,52.246,40.039,334.961,87.891,462.402
1530597927.200,121.582,88.379,257.812,161.133,934.082
1530597927.204,18.066,48.828,333.496,41.016,104.004
1530597927.208,-84.961,-3.418,426.270,-54.688,-438.477
1530597927.212,-10.254,31.250,342.773,42.969,32.715
1530597927.216,110.352,81.055,218.750,154.785,229.492
1530597927.220,53.711,55.664,271.484,83.496,-122.559
1530597927.224,-82.520,-1.953,389.648,-46.387,-651.367
1530597927.228,-52.734,8.301,361.328,-4.395,-378.906
1530597927.232,86.426,80.078,250.000,142.578,235.352
1530597927.236,71.289,79.590,258.301,109.375,-191.406
1530597927.239,-58.594,13.672,361.816,-33.691,-166.992
1530597927.243,-73.242,1.465,379.883,-30.762,123.047
1530597927.247,59.082,62.500,263.184,106.934,38.574
1530597927.251,98.633,79.590,223.145,123.535,-17.090
1530597927.255,-20.996,23.438,319.824,4.395,-21.973
1530597927.259,-94.238,-4.395,393.555,-39.062,13.184
1530597927.263,17.578,53.223,305.176,64.453,-2.441
1530597927.267,106.445,83.984,214.355,121.582,0.488
1530597927.271,25.879,39.062,284.668,45.898,28.320
1530597927.275,-70.801,-7.324,386.230,-45.410,18.066
1530597927.278,-3.906,18.066,326.660,16.602,15.137
1530597927.282,111.816,69.336,215.820,120.605,4.883
1530597927.286,60.059,50.293,250.488,74.219,-0.488
1530597927.290,-60.059,-4.395,362.793,-33.691,22.949
1530597927.294,-38.574,5.859,363.281,-2.930,32.227
1530597927.298,84.961,68.359,232.422,118.652,10.254
1530597927.302,83.984,71.777,211.426,114.746,23.926
1530597927.306,-40.527,13.184,330.566,-5.371,48.340
1530597927.310,-57.129,0.977,356.934,-27.832,21.973
1530597927.314,74.219,59.570,241.211,106.445,15.137
1530597927.318,113.770,74.707,201.172,144.043,12.207
1530597927.321,-14.160,12.695,298.340,24.414,13.672
1530597927.325,-91.309,-24.902,370.605,-46.387,17.090
1530597927.329,26.855,23.926,287.109,73.242,14.160
1530597927.333,116.211,60.059,191.895,150.391,8.789
1530597927.337,32.227,27.344,253.906,64.941,16.602
1530597927.341,-75.195,-13.184,361.328,-35.156,17.578
1530597927.345,-18.066,6.836,319.824,21.973,19.531
1530597927.349,98.145,62.500,196.289,150.879,38.574
1530597927.353,51.270,50.781,205.566,100.586,12.695
1530597927.357,-83.496,-20.020,321.289,-45.410,-24.902
1530597927.361,-73.242,-21.973,327.148,-31.250,10.742
1530597927.364,64.453,46.387,198.242,108.887,10.742
1530597927.368,79.590,61.523,173.828,117.676,-7.812
1530597927.372,-43.457,10.742,276.855,-7.324,17.578
1530597927.376,-83.496,-8.789,323.242,-35.156,5.859
1530597927.380,33.691,45.410,207.031,93.262,4.883
1530597927.384,96.191,65.430,131.836,143.555,14.648
1530597927.388,-7.812,16.602,229.492,34.668,-0.977
1530597927.392,-93.262,-17.090,331.543,-50.781,13.672
1530597927.396,11.719,26.367,258.789,53.711,26.367
1530597927.400,107.422,67.383,148.926,134.766,4.883
1530597927.403,31.250,35.645,191.895,52.734,9.766
1530597927.407,-71.289,-2.930,295.898,-40.527,15.137
1530597927.411,-20.508,14.160,258.789,16.113,4.395
1530597927.415,107.422,76.172,136.230,138.672,16.113
1530597927.419,78.613,75.195,149.902,104.980,10.254
1530597927.423,-62.988,0.488,264.160,-25.391,6.836
1530597927.427,-61.035,-4.883,271.973,-21.973,27.344
1530597927.431,74.219,60.547,146.484,116.211,24.414
1530597927.435,91.309,76.660,114.258,124.023,8.301
1530597927.439,-27.832,21.973,231.445,6.836,28.809
1530597927.443,-75.684,-5.859,291.992,-31.738,28.320
1530597927.446,30.762,45.410,176.270,72.754,10.742
1530597927.450,100.586,83.984,94.238,136.719,1.953
1530597927.454,10.742,41.016,167.969,35.156,10.254
1530597927.458,-89.355,-9.766,249.023,-59.082,8.301
1530597927.462,-23.926,10.742,173.340,25.879,-0.977
1530597927.466,87.891,58.594,62.012,131.836,13.184
1530597927.470,29.297,38.086,103.027,63.965,-5.859
1530597927.474,-97.656,-17.578,211.914,-60.547,3.906
1530597927.478,-56.152,9.766,186.523,-4.883,16.602
1530597927.482,84.961,77.637,71.777,133.301,-2.930
1530597927.486,69.336,58.105,71.777,103.027,20.508
1530597927.489,-64.453,-6.836,169.434,-36.621,3.418
1530597927.493,-75.684,-9.277,188.477,-44.434,-18.066
1530597927.497,58.105,47.363,64.941,94.727,19.531
1530597927.501,102.051,62.500,8.301,132.324,29.297
1530597927.505,-9.766,17.090,102.539,18.555,14.648
1530597927.509,-69.336,-13.672,168.945,-43.457,8.301
1530597927.513,36.133,21.484,71.777,59.570,5.859
1530597927.517,115.723,61.523,-20.996,134.766,18.066
1530597927.521,33.203,24.902,46.387,55.176,20.996
1530597927.525,-81.543,-36.133,125.000,-42.480,14.160
1530597927.528,-15.625,-9.766,69.824,37.598,16.602
1530597927.532,109.863,50.781,-37.109,148.926,11.230
1530597927.536,55.176,34.180,-4.883,86.426,3.418
1530597927.540,-72.754,-18.066,120.605,-33.691,18.555
1530597927.544,-40.527,1.953,112.305,2.441,10.254
1530597927.548,91.797,62.012,-18.066,126.465,9.277
1530597927.552,81.543,52.734,-28.809,102.051,17.090
1530597927.556,-47.363,-4.395,91.797,-18.555,1.465
1530597927.560,-63.965,-4.395,125.977,-24.902,6.348
1530597927.564,60.547,53.711,-8.301,90.332,-5.371
1530597927.568,94.238,57.129,-64.453,121.094,2.930
1530597927.571,-24.414,6.348,58.105,17.090,22.461
1530597927.575,-102.051,-22.949,138.672,-52.246,41.016
1530597927.579,15.625,21.973,40.527,50.293,28.320
1530597927.583,110.840,61.523,-43.945,133.301,-3.418
1530597927.587,20.996,18.066,29.785,45.898,3.906
1530597927.591,-90.332,-21.973,124.023,-59.082,17.578
1530597927.595,-27.832,9.766,77.637,5.859,-20.996
1530597927.599,88.379,55.664,-24.414,116.699,4.395
1530597927.603,58.594,48.828,2.930,77.637,21.973
1530597927.607,-57.129,-8.301,118.652,-36.621,-11.230
1530597927.610,-49.316,-15.625,124.023,-19.531,8.301
1530597927.614,86.426,46.875,3.906,121.582,14.160
1530597927.618,96.680,59.082,-18.066,129.395,20.020
1530597927.622,-26.367,9.277,105.469,5.371,24.902
1530597927.626,-61.523,-14.160,145.020,-29.785,-0.977
1530597927.630,57.617,34.668,33.203,87.891,7.324
1530597927.634,111.816,65.918,-11.230,136.719,17.578
1530597927.638,6.348,17.578,78.125,24.414,-6.836
1530597927.642,-80.566,-20.508,154.297,-59.570,7.324
1530597927.646,0.000,17.090,68.359,39.062,22.949
1530597927.650,102.051,66.406,-22.949,137.695,13.672
1530597927.653,39.551,37.598,55.664,64.941,12.695
1530597927.657,-79.590,-19.043,171.875,-45.410,-1.953
1530597927.661,-31.250,10.254,120.117,5.859,1.953
1530597927.665,94.238,71.777,-13.672,127.930,12.695
1530597927.669,62.012,58.594,14.648,91.797,16.602
1530597927.673,-69.824,0.488,134.766,-39.551,15.137
1530597927.677,-62.500,8.789,141.602,-21.973,23.438
1530597927.681,77.148,73.242,21.973,118.652,39.062
1530597927.685,91.797,72.754,-9.277,117.676,10.254
1530597927.689,-27.832,14.648,113.281,-5.859,-23.926
1530597927.693,-76.172,-7.812,174.805,-44.922,10.742
1530597927.696,35.156,41.992,64.941,68.848,11.719
1530597927.700,101.562,76.660,-8.789,128.906,-9.277
1530597927.704,-4.883,30.762,74.707,27.832,17.578
1530597927.708,-95.215,-7.324,182.617,-56.152,27.344
1530597927.712,-6.348,32.715,120.605,41.504,18.066
1530597927.716,101.562,71.777,5.859,135.742,9.277
1530597927.720,42.480,43.945,54.688,57.129,-14.648
1530597927.724,-71.777,0.000,165.039,-47.363,9.766
1530597927.728,-36.133,10.742,124.512,-3.906,28.809
1530597927.732,83.984,67.383,11.719,105.469,20.508
1530597927.735,62.012,65.430,31.250,83.984,20.020
1530597927.739,-64.941,8.301,153.320,-32.227,-4.395
1530597927.743,-74.707,-1.465,184.082,-40.039,-8.301
1530597927.747,53.711,50.293,55.176,84.961,20.508
1530597927.751,81.055,64.941,10.742,108.887,9.277
1530597927.755,-37.109,22.949,125.000,-5.859,8.301
1530597927.759,-99.121,-11.719,187.012,-57.129,26.367
1530597927.763,10.742,29.785,75.195,53.223,14.160
1530597927.767,93.750,73.242,-2.930,122.070,5.859
1530597927.771,1.953,42.480,80.566,41.016,24.414
1530597927.775,-95.703,-4.883,179.688,-62.500,17.578
1530597927.778,-22.461,15.137,111.328,3.906,10.742
1530597927.782,85.449,69.336,-5.371,123.047,19.531
1530597927.786,37.109,50.293,39.062,67.383,20.020
1530597927.790,-78.613,-0.977,161.133,-47.363,3.418
1530597927.794,-54.199,12.207,145.020,-5.371,-0.977
1530597927.798,71.777,68.848,13.184,116.211,12.695
1530597927.802,74.707,78.125,6.348,106.934,-0.488
1530597927.806,-54.199,19.531,125.977,-23.926,10.742
1530597927.810,-90.332,-4.883,151.367,-54.688,19.043
1530597927.814,36.621,47.852,32.715,80.566,38.086
1530597927.818,87.891,72.266,-14.648,122.559,34.668
1530597927.821,-28.320,21.484,79.590,-9.277,-1.953
1530597927.825,-103.027,-12.207,151.855,-77.148,-3.418
1530597927.829,6.348,42.480,64.941,42.480,21.484
1530597927.833,98.145,91.797,-21.973,121.582,0.977
1530597927.837,21.484,54.199,47.363,30.273,-0.488
1530597927.841,-87.402,-2.930,152.344,-73.730,21.973
1530597927.845,-28.809,27.832,103.027,5.859,0.488
1530597927.849,92.773,78.125,-15.625,119.629,8.789
1530597927.853,48.340,51.758,12.695,67.383,24.414
1530597927.857,-81.055,1.465,133.301,-52.246,13.184
1530597927.860,-67.383,4.395,137.695,-22.949,16.602
1530597927.864,59.570,59.082,13.184,103.027,10.254
1530597927.868,61.523,61.035,1.953,88.867,5.859
1530597927.872,-54.688,0.977,121.094,-33.691,12.695
1530597927.876,-81.543,-14.160,165.039,-49.805,-4.883
1530597927.880,38.574,37.598,53.711,80.078,7.812
1530597927.884,83.008,66.895,-12.695,121.582,19.043
1530597927.888,-24.414,19.531,83.008,10.254,17.578
1530597927.892,-97.168,-22.461,166.992,-62.500,12.695
1530597927.896,5.371,33.691,83.496,36.621,-10.254
1530597927.900,90.332,76.660,-7.324,127.930,4.395
1530597927.903,15.625,34.180,45.410,57.129,27.344
1530597927.907,-93.750,-19.043,140.137,-58.594,31.250
1530597927.911,-57.617,0.000,119.629,-16.602,14.648
1530597927.915,72.754,66.406,10.742,107.910,4.395
1530597927.919,54.688,60.059,27.344,83.008,19.531
1530597927.923,-67.383,0.488,144.531,-41.504,18.555
1530597927.927,-64.941,4.395,153.809,-32.227,-29.785
1530597927.931,61.523,63.965,29.297,104.004,0.000
1530597927.935,82.031,69.336,0.977,117.676,23.438
1530597927.939,-30.762,17.578,118.164,0.977,-4.883
1530597927.942,-85.449,-9.277,167.969,-49.316,8.301
1530597927.946,24.414,28.809,64.941,61.523,20.996
1530597927.950,92.285,62.988,-4.883,124.023,28.809
1530597927.954,-3.906,27.344,70.312,19.043,23.438
1530597927.958,-92.773,-19.043,163.086,-69.336,-0.977
1530597927.962,-2.441,25.391,94.238,30.273,5.859
1530597927.966,104.492,76.660,-12.695,128.906,18.555
1530597927.970,31.738,42.969,52.734,54.199,-3.418
1530597927.974,-87.402,-6.348,171.875,-52.246,7.324
1530597927.978,-34.180,16.113,145.020,-1.953,33.203
1530597927.982,100.098,74.707,21.973,129.395,20.508
1530597927.985,74.707,62.988,26.855,96.191,10.742
1530597927.989,-63.965,-4.883,143.066,-40.527,-0.488
1530597927.993,-68.848,-13.184,158.691,-30.273,5.859
1530597927.997,72.266,57.617,46.387,109.863,11.230
1530597928.001,103.027,70.312,22.461,116.699,2.441
1530597928.005,-19.043,8.789,121.094,-3.418,14.648
1530597928.009,-92.285,-17.090,183.594,-44.922,24.902
1530597928.013,15.625,33.203,88.379,63.477,14.160
1530597928.017,96.191,74.219,-5.859,129.883,4.883
1530597928.021,10.742,37.109,77.148,41.504,7.324
1530597928.025,-79.590,-14.160,184.570,-44.434,23.438
1530597928.028,-9.277,12.695,121.582,26.367,7.812
1530597928.032,104.980,61.523,22.949,135.254,-4.395
1530597928.036,48.828,44.922,63.965,76.172,17.090
1530597928.040,-74.219,-5.371,172.852,-42.480,16.602
1530597928.044,-42.480,-4.395,144.531,1.953,16.113
1530597928.048,86.426,55.176,12.207,124.023,10.254
1530597928.052,75.684,51.758,22.949,97.656,-4.883
1530597928.056,-50.781,1.465,150.391,-13.672,20.020
1530597928.060,-67.871,-5.859,172.363,-34.180,24.902
1530597928.064,55.664,42.480,54.199,79.102,4.395
1530597928.067,104.492,73.242,11.230,126.465,13.184
1530597928.071,-20.996,22.461,108.887,12.695,-0.488
1530597928.075,-98.633,-20.020,184.082,-58.594,-10.742
1530597928.079,20.020,27.344,97.168,58.594,23.926
1530597928.083,104.980,68.848,11.719,138.672,39.062
1530597928.087,18.066,40.527,85.449,51.270,16.602
1530597928.091,-85.449,-5.859,185.547,-46.387,21.973
1530597928.095,-22.949,14.648,134.277,20.508,17.578
1530597928.099,97.656,68.848,31.738,137.207,6.348
1530597928.103,55.664,58.105,53.223,83.984,-3.906
1530597928.107,-71.289,4.395,160.645,-49.316,-3.418
1530597928.110,-48.340,2.930,163.574,-28.320,27.344
1530597928.114,84.961,54.688,46.387,114.258,28.320
1530597928.118,85.449,64.941,39.551,117.676,13.184
1530597928.122,-43.457,7.812,153.809,-20.020,1.953
1530597928.126,-71.289,-9.277,206.543,-47.852,-7.812
1530597928.130,53.223,43.457,93.750,90.332,13.184
1530597928.134,102.539,66.406,24.902,132.812,18.555
1530597928.138,-12.695,15.625,117.188,20.508,16.602
1530597928.142,-84.961,-13.184,205.078,-42.480,18.066
1530597928.146,17.578,30.273,131.348,68.359,40.527
1530597928.149,106.934,60.547,23.926,139.648,31.738
1530597928.153,24.414,24.414,87.402,55.664,-3.418
1530597928.157,-90.332,-23.438,205.078,-41.992,-2.930
1530597928.161,-33.203,6.348,159.180,18.555,25.391
1530597928.165,97.168,65.430,34.180,130.371,2.930
1530597928.169,73.242,49.316,58.105,91.797,4.395
1530597928.173,-63.965,-6.348,190.918,-20.020,12.207
1530597928.177,-66.406,-4.395,190.430,-22.461,-16.602
1530597928.181,72.266,58.105,62.012,110.840,7.812
1530597928.185,100.586,66.895,47.852,127.930,26.367
1530597928.189,-15.137,14.648,158.691,-0.488,28.320
1530597928.192,-72.754,-7.324,204.102,-36.133,25.879
1530597928.196,29.785,44.922,100.586,78.613,26.367
1530597928.200,85.938,72.266,40.039,124.023,12.207
1530597928.204,-6.348,23.926,132.324,32.715,8.789
1530597928.208,-72.754,-7.812,227.539,-54.688,-3.418
1530597928.212,18.066,36.621,160.645,29.297,7.812
1530597928.216,102.051,83.008,62.500,138.672,23.926
1530597928.220,44.922,52.246,115.234,71.289,9.277
1530597928.224,-68.848,-15.137,226.562,-49.805,5.859
1530597928.228,-40.527,5.859,205.566,0.977,15.137
1530597928.232,85.449,64.453,75.684,128.418,20.508
1530597928.235,66.895,42.969,87.402,93.262,11.719
1530597928.239,-64.453,-12.695,216.309,-34.668,0.000
1530597928.243,-66.406,-15.625,240.723,-36.133,10.742
1530597928.247,81.543,45.410,121.094,89.355,16.602
1530597928.251,99.609,62.988,90.820,112.305,18.066
1530597928.255,-21.973,2.930,194.824,6.836,13.672
1530597928.259,-63.477,-26.367,256.836,-39.062,-18.555
1530597928.263,45.410,31.738,178.223,77.148,6.836
1530597928.267,112.793,62.500,105.469,139.648,23.926
1530597928.271,11.230,14.160,187.500,41.016,-1.465
1530597928.274,-80.078,-31.250,291.992,-41.992,7.324
1530597928.278,15.137,-0.488,230.957,46.387,28.320
1530597928.282,107.422,51.270,118.164,165.039,25.391
1530597928.286,43.457,26.855,156.250,86.426,16.113
1530597928.290,-79.102,-28.809,287.109,-45.898,8.789
1530597928.294,-51.270,-14.160,282.227,1.465,11.230
1530597928.298,77.148,42.480,159.180,123.535,17.578
1530597928.302,70.801,39.551,166.016,104.492,-7.324
1530597928.306,-55.176,-11.230,300.781,-13.672,8.301
1530597928.310,-74.707,-17.090,342.773,-18.555,28.809
1530597928.314,67.871,35.645,222.168,99.121,9.766
1530597928.317,104.004,48.828,181.641,128.418,12.207
1530597928.321,-23.438,7.812,290.039,20.508,32.715
1530597928.325,-90.332,-21.973,348.145,-32.715,23.438
1530597928.329,21.484,15.137,269.043,69.824,4.883
1530597928.333,111.816,53.223,198.730,131.348,-3.906
1530597928.337,20.996,20.508,262.695,40.039,13.184
1530597928.341,-78.613,-29.785,364.746,-59.082,18.066
1530597928.345,-11.230,4.395,324.707,20.020,10.254
1530597928.349,84.961,62.012,215.820,138.184,5.371
1530597928.353,53.223,41.992,244.141,87.402,8.301
1530597928.357,-59.570,-7.324,355.957,-22.949,25.391
1530597928.360,-39.551,3.906,341.797,-4.395,7.324
1530597928.364,88.379,56.641,208.008,117.676,-2.930
1530597928.368,83.008,54.688,188.965,118.652,17.578
1530597928.372,-47.363,-5.859,307.617,-9.277,19.043
1530597928.376,-72.754,-26.367,336.914,-41.016,3.418
1530597928.380,57.129,35.645,216.797,88.379,15.625
1530597928.384,105.957,71.777,177.734,136.230,48.828
1530597928.388,-13.184,17.090,261.230,17.578,29.297
1530597928.392,-97.656,-21.973,325.684,-61.035,19.043
1530597928.396,22.461,26.855,246.094,58.105,10.742
1530597928.399,116.699,64.453,145.508,145.020,11.719
1530597928.403,26.855,23.926,189.453,42.969,2.930
1530597928.407,-82.031,-24.902,291.016,-62.500,-4.883
1530597928.411,-27.344,10.742,245.117,8.301,21.484
1530597928.415,91.797,66.895,125.977,133.301,31.250
1530597928.419,59.082,44.434,141.602,96.680,15.137
1530597928.423,-60.547,-7.324,242.676,-33.203,23.438
1530597928.427,-36.621,-1.465,250.000,-17.090,25.391
1530597928.431,76.172,55.176,116.699,117.676,9.277
1530597928.435,80.566,61.035,74.707,105.469,0.000
1530597928.439,-31.738,8.789,188.477,-22.949,7.324
1530597928.442,-79.102,-19.043,230.957,-51.270,17.578
1530597928.446,37.109,34.668,98.633,72.266,8.789
1530597928.450,96.680,77.637,19.043,125.488,11.719
1530597928.454,-2.930,34.180,98.145,21.973,5.371
1530597928.458,-83.984,-19.531,170.410,-65.918,15.137
1530597928.462,7.812,13.184,85.938,43.457,22.461
1530597928.466,107.422,66.895,-40.039,142.578,5.371
1530597928.470,40.039,37.598,-11.230,48.828,10.742
1530597928.474,-75.684,-22.949,96.680,-48.828,18.066
1530597928.478,-22.461,4.395,59.570,16.602,6.348
1530597928.481,105.957,62.500,-86.426,125.000,12.207
1530597928.485,90.332,49.316,-94.727,89.844,11.230
1530597928.489,-64.941,-3.418,16.602,-32.227,6.836
1530597928.493,-73.730,3.418,27.832,-36.133,20.508
1530597928.497,74.707,56.641,-92.773,92.773,13.672
1530597928.501,94.238,61.035,-127.930,133.301,12.207
1530597928.505,-7.812,14.160,-22.949,10.742,15.137
1530597928.509,-72.266,-11.719,29.297,-42.969,4.883
1530597928.513,36.621,36.133,-69.824,88.867,11.230
1530597928.517,115.723,76.172,-140.137,143.555,28.809
1530597928.521,-5.859,31.738,-67.871,37.109,39.062
1530597928.524,-71.777,-15.137,24.902,-57.129,21.973
1530597928.528,12.695,23.926,-26.855,35.645,11.719
1530597928.532,112.793,76.660,-138.672,135.742,9.277
1530597928.536,56.641,53.711,-98.145,69.336,12.695
1530597928.540,-66.895,-1.953,20.020,-46.387,3.906
1530597928.544,-50.293,1.953,0.000,4.395,10.742
1530597928.548,63.965,57.617,-126.465,124.512,22.949
1530597928.552,73.242,59.082,-119.629,92.285,11.719
1530597928.556,-39.062,5.371,5.371,-14.648,7.812
1530597928.560,-74.707,-1.465,34.180,-28.809,-0.977
1530597928.564,58.105,55.176,-83.984,98.633,16.602
1530597928.567,123.047,78.125,-127.930,131.836,16.113
1530597928.571,14.648,26.367,-17.090,20.996,-4.395
1530597928.575,-87.402,-3.906,52.734,-38.086,12.695
1530597928.579,11.719,39.551,-28.809,68.848,6.836
1530597928.583,105.957,65.918,-103.516,148.438,9.277
1530597928.587,26.855,31.250,-39.551,40.039,15.137
1530597928.591,-85.449,-14.160,62.500,-50.293,-18.066
1530597928.595,-24.414,12.207,9.766,46.875,8.789
1530597928.599,114.746,68.848,-105.469,169.922,24.414
1530597928.603,76.172,41.504,-65.918,104.004,11.230
1530597928.606,-82.520,-24.414,53.223,-29.297,15.137
1530597928.610,-52.246,-10.742,56.152,2.441,19.531
1530597928.614,97.168,49.805,-76.660,132.812,15.137
1530597928.618,85.938,45.410,-96.680,115.234,15.137
1530597928.622,-31.250,-14.160,37.109,-8.301,17.578
1530597928.626,-59.082,-28.320,79.102,-33.691,17.090
1530597928.630,63.965,27.832,-45.410,92.773,16.602
1530597928.634,99.121,45.410,-96.680,139.160,0.977
1530597928.638,-7.812,-1.953,5.859,26.367,10.742
1530597928.642,-60.059,-23.926,82.520,-36.133,21.973
1530597928.646,20.996,21.484,-4.883,65.918,5.859
1530597928.649,119.141,58.594,-93.262,145.996,13.672
1530597928.653,47.852,22.461,-15.137,68.848,42.969
1530597928.657,-52.734,-24.902,96.191,-31.250,25.391
1530597928.661,3.418,0.488,45.898,17.090,3.418
1530597928.665,93.262,55.664,-73.242,130.859,1.953
1530597928.669,68.359,48.340,-36.621,103.516,13.184
1530597928.673,-52.246,-9.277,80.566,-20.996,19.531
1530597928.677,-39.551,-18.555,81.055,-15.137,11.719
1530597928.681,89.355,43.945,-39.551,114.746,10.742
1530597928.685,81.543,64.453,-65.918,128.418,-2.930
1530597928.688,-37.598,4.883,48.340,-2.930,9.766
1530597928.692,-68.848,-23.438,108.887,-48.828,16.113
1530597928.696,53.223,29.297,2.930,84.473,18.555
1530597928.700,108.887,62.012,-54.688,154.785,24.902
1530597928.704,-2.930,22.949,39.551,41.992,-2.441
1530597928.708,-97.656,-20.996,119.629,-52.246,-2.930
1530597928.712,35.156,16.602,48.340,37.109,15.137
1530597928.716,131.348,68.848,-37.598,144.531,-3.906
1530597928.720,5.371,29.785,13.672,62.012,9.766
1530597928.724,-95.215,-28.809,135.254,-30.273,29.297
1530597928.728,-5.859,4.395,115.723,52.246,26.367
1530597928.731,113.770,73.242,-27.832,125.488,19.043
1530597928.735,80.566,62.012,-25.879,58.594,-0.977
1530597928.739,-58.594,6.836,91.309,-53.223,-3.418
1530597928.743,-73.730,16.113,102.051,-48.828,22.949
1530597928.747,49.316,67.871,-31.250,77.637,18.555
1530597928.751,71.289,82.031,-71.289,84.961,4.883
1530597928.755,-16.602,46.875,37.109,-57.617,27.344
1530597928.759,-88.379,23.926,97.168,-84.473,50.781
1530597928.763,-2.441,77.637,-8.789,30.273,18.066
1530597928.767,77.637,120.605,-88.379,67.383,-4.395
1530597928.771,-21.973,77.637,-9.277,-35.645,9.766
1530597928.774,-98.145,38.574,83.008,-126.465,17.578
1530597928.778,-41.504,77.148,14.160,-56.152,10.742
1530597928.782,58.594,125.977,-102.051,36.133,11.719
1530597928.786,4.883,93.262,-66.406,-31.738,8.789
1530597928.790,-134.766,36.621,45.898,-143.066,16.602
1530597928.794,-106.445,60.059,21.973,-99.609,19.531
1530597928.798,38.574,123.047,-101.074,11.719,-2.441
1530597928.802,35.645,117.676,-95.703,3.418,10.254
1530597928.806,-96.191,62.012,11.719,-103.516,14.160
1530597928.810,-78.613,67.383,39.062,-131.836,-0.977
1530597928.813,28.809,126.953,-65.918,2.930,16.113
1530597928.817,54.688,130.371,-116.699,39.551,13.184
1530597928.821,-31.250,70.801,-17.578,-76.660,4.395
1530597928.825,-93.262,41.504,55.176,-122.070,19.531
1530597928.829,3.906,100.586,-41.504,0.000,16.113
1530597928.833,84.961,139.160,-112.793,80.078,16.113
1530597928.837,12.695,99.609,-18.066,-15.137,15.137
1530597928.841,-78.613,41.992,83.496,-101.074,-10.742
1530597928.845,4.883,61.523,26.855,-25.391,5.859
1530597928.849,124.023,123.047,-86.914,96.680,35.156
1530597928.853,54.199,104.492,-52.734,48.340,20.508
1530597928.856,-70.801,27.832,73.730,-81.055,10.254
1530597928.860,-49.805,29.785,65.918,-48.340,20.020
1530597928.864,94.238,101.074,-59.570,97.168,16.602
1530597928.868,105.957,100.586,-59.570,89.355,13.672
1530597928.872,-28.809,34.668,65.918,-40.039,5.859
1530597928.876,-51.270,24.902,107.422,-49.316,9.277
1530597928.880,80.566,85.449,-11.719,89.355,22.949
1530597928.884,122.559,107.910,-62.988,129.395,26.855
1530597928.888,10.254,48.340,32.715,15.625,13.184
1530597928.892,-60.547,3.906,114.258,-53.711,6.348
1530597928.896,36.133,50.293,29.785,48.828,15.625
1530597928.899,128.906,93.262,-51.758,129.395,13.184
1530597928.903,52.734,51.758,23.438,45.410,6.348
1530597928.907,-58.105,3.906,132.812,-48.340,15.625
1530597928.911,8.789,38.574,89.355,35.156,6.348
1530597928.915,119.629,87.402,-33.203,141.113,5.371
1530597928.919,83.496,70.801,-6.836,86.426,16.113
1530597928.923,-42.969,13.672,105.469,-32.227,16.113
1530597928.927,-38.086,14.648,101.562,-15.137,19.043
1530597928.931,110.352,79.590,-5.859,128.906,20.508
1530597928.935,122.559,82.031,-10.254,134.766,9.277
1530597928.938,-23.438,22.461,102.539,-0.488,11.719
1530597928.942,-72.266,4.395,139.648,-39.062,11.719
1530597928.946,54.199,57.129,24.414,80.078,8.301
1530597928.950,110.840,85.449,-38.574,120.117,27.832
1530597928.954,13.672,40.527,55.664,22.949,26.855
1530597928.958,-58.105,8.301,142.090,-49.316,9.277
1530597928.962,19.531,45.410,79.590,42.480,15.625
1530597928.966,114.258,85.938,-7.324,143.066,2.930
1530597928.970,47.363,46.387,45.898,66.406,10.254
1530597928.974,-69.336,-12.695,149.902,-44.434,20.508
1530597928.978,-24.414,14.648,110.840,12.207,13.184
1530597928.981,105.469,78.613,-8.301,128.418,19.531
1530597928.985,84.473,71.777,20.020,96.680,45.898
1530597928.989,-49.805,20.996,139.648,-30.762,25.391
1530597928.993,-52.734,20.020,142.090,-21.973,0.488
1530597928.997,89.355,75.195,29.785,109.863,7.812
1530597929.001,113.281,75.195,10.742,122.559,21.484
1530597929.005,-9.277,20.020,136.719,9.766,13.672
1530597929.009,-60.547,-3.906,189.453,-33.203,7.324
1530597929.013,61.035,43.457,75.684,90.820,6.348
1530597929.017,124.023,77.148,10.742,146.973,-6.836
1530597929.020,6.836,43.945,94.727,29.785,13.672
1530597929.024,-88.867,3.418,195.801,-53.223,13.184
1530597929.028,9.766,41.504,140.625,44.922,30.273
1530597929.032,117.188,91.309,17.090,144.043,33.203
1530597929.036,38.574,50.293,63.477,63.965,-7.324
1530597929.040,-86.426,-10.742,185.547,-53.711,0.977
1530597929.044,-40.527,3.906,169.434,-0.977,14.160
1530597929.048,94.727,64.941,51.270,124.023,-13.184
1530597929.052,73.242,60.547,44.922,99.121,8.301
1530597929.056,-59.570,6.836,159.180,-20.020,32.715
1530597929.060,-53.223,11.719,190.430,-4.395,17.090
1530597929.063,86.426,67.871,74.219,127.930,11.230
1530597929.067,105.957,71.777,31.738,132.324,3.906
1530597929.071,-22.461,13.672,142.090,14.160,7.324
1530597929.075,-80.566,-5.371,207.520,-35.156,22.949
1530597929.079,38.574,45.410,102.051,67.383,9.277
1530597929.083,116.211,70.801,20.508,123.535,10.254
1530597929.087,27.344,43.945,103.027,43.945,20.996
1530597929.091,-69.824,5.371,203.613,-39.551,1.465
1530597929.095,-7.324,23.438,136.230,25.391,5.859
1530597929.099,107.422,81.055,26.367,132.812,4.883
1530597929.103,74.219,74.707,75.684,90.332,8.789
1530597929.106,-45.410,10.742,187.012,-28.809,17.090
1530597929.110,-25.879,3.906,167.480,-6.348,6.836
1530597929.114,111.328,65.430,55.176,129.883,7.812
1530597929.118,104.492,72.266,63.965,127.930,16.602
1530597929.122,-36.133,13.184,165.527,-1.465,28.320
1530597929.126,-56.641,-1.953,192.871,-26.855,16.113
1530597929.130,73.730,50.781,94.238,100.586,-0.977
1530597929.134,114.258,75.684,47.852,136.719,27.832
1530597929.138,-5.859,24.414,140.137,19.043,16.602
1530597929.142,-75.684,-9.277,213.867,-40.527,-16.602
1530597929.145,35.645,44.434,131.348,70.312,14.160
1530597929.149,118.164,75.195,27.344,146.484,6.836
1530597929.153,31.250,38.574,97.656,59.082,-4.883
1530597929.157,-76.660,-4.395,223.145,-40.527,20.508
1530597929.161,-20.020,17.578,172.363,19.531,13.672
1530597929.165,107.910,80.078,57.129,142.578,17.578
1530597929.169,65.430,47.852,78.125,89.355,12.695
1530597929.173,-65.430,-16.602,192.383,-41.504,-11.230
1530597929.177,-43.945,-0.977,195.801,-7.324,11.719
1530597929.181,91.797,62.012,70.801,131.348,27.832
1530597929.185,101.074,75.684,53.711,117.676,5.371
1530597929.188,-34.180,21.973,165.527,-16.113,10.742
1530597929.192,-79.590,-3.906,219.238,-42.969,40.527
1530597929.196,56.152,50.293,112.305,91.309,23.438
1530597929.200,115.234,81.543,39.551,136.719,9.277
1530597929.204,5.859,28.809,123.535,20.508,4.883
1530597929.208,-77.637,-19.043,211.426,-54.688,7.324
1530597929.212,18.555,26.367,134.277,55.176,27.832
1530597929.216,120.117,85.449,26.367,142.090,21.484
1530597929.220,39.551,57.617,84.961,55.664,8.789
1530597929.224,-78.125,-4.395,204.590,-44.922,47.852
1530597929.228,-15.625,17.578,166.016,13.184,34.180
1530597929.231,122.070,77.637,36.621,126.465,10.254
1530597929.235,90.820,66.895,64.453,94.727,28.320
1530597929.239,-46.875,11.719,190.430,-25.391,20.996
1530597929.243,-49.805,-0.977,194.824,-29.297,1.465
1530597929.247,82.520,56.152,66.895,97.656,3.418
1530597929.251,96.680,75.684,33.203,119.141,14.648
1530597929.255,-23.926,20.508,150.391,7.812,-10.254
1530597929.259,-64.453,-3.418,200.684,-27.344,13.184
1530597929.263,50.781,54.688,73.242,94.238,20.996
1530597929.267,113.770,83.008,17.090,145.020,-1.465
1530597929.270,18.066,36.133,121.094,53.223,18.555
1530597929.274,-72.754,-9.766,196.289,-41.016,5.371
1530597929.278,13.184,31.250,131.836,39.551,-5.859
1530597929.282,111.816,83.496,37.598,144.043,20.020
1530597929.286,41.016,44.922,81.543,72.754,8.301
1530597929.290,-70.801,-13.184,188.965,-39.062,5.859
1530597929.294,-13.672,12.207,166.992,20.508,17.578
1530597929.298,125.488,75.684,31.250,148.926,16.602
1530597929.302,98.633,70.312,40.527,113.281,15.625
1530597929.306,-63.477,1.953,163.086,-24.902,30.273
1530597929.310,-83.008,-8.789,168.457,-34.668,20.508
1530597929.313,56.641,52.246,51.758,107.910,15.137
1530597929.317,90.820,62.988,19.043,131.348,21.484
1530597929.321,-11.719,21.973,126.465,6.836,6.348
1530597929.325,-68.359,12.207,184.082,-41.992,13.672
1530597929.329,32.227,57.617,83.496,77.148,13.184
